Wavenumbers [1/cm],Absorbance
3997.712,-0.00026731
3995.783,-0.000277008
3993.855,-0.000275518
3991.926,-0.000272098
3989.998,-0.000274597
3988.069,-0.000280087
3986.141,-0.000273932
3984.212,-0.000259557
3982.284,-0.000262178
3980.355,-0.000281537
3978.427,-0.000298077
3976.499,-0.000306725
3974.57,-0.000307355
3972.642,-0.000300183
3970.713,-0.000291838
3968.785,-0.000290496
3966.856,-0.000295323
3964.928,-0.000291762
3962.999,-0.000280648
3961.071,-0.0002817
3959.142,-0.000290178
3957.214,-0.000285055
3955.285,-0.000271686
3953.357,-0.000271694
3951.428,-0.000283404
3949.5,-0.000292369
3947.572,-0.000298094
3945.643,-0.000294905
3943.715,-0.000275172
3941.786,-0.000251434
3939.858,-0.00024341
3937.929,-0.000254609
3936.001,-0.000270378
3934.072,-0.000276117
3932.144,-0.000272932
3930.215,-0.000277413
3928.287,-0.000290671
3926.358,-0.000293912
3924.43,-0.000282961
3922.501,-0.000270026
3920.573,-0.000269363
3918.645,-0.000277903
3916.716,-0.000286593
3914.788,-0.000297394
3912.859,-0.000303529
3910.931,-0.000304016
3909.002,-0.000306745
3907.074,-0.000300649
3905.145,-0.000286359
3903.217,-0.000284957
3901.288,-0.00029334
3899.36,-0.000291921
3897.431,-0.00028161
3895.503,-0.000275173
3893.574,-0.000274005
3891.646,-0.000268383
3889.718,-0.00026227
3887.789,-0.000275345
3885.861,-0.000301142
3883.932,-0.000313975
3882.004,-0.00031438
3880.075,-0.000311019
3878.147,-0.000304321
3876.218,-0.000303953
3874.29,-0.000312514
3872.361,-0.000321605
3870.433,-0.000327767
3868.504,-0.000326936
3866.576,-0.000321493
3864.647,-0.000317165
3862.719,-0.000305855
3860.791,-0.00028642
3858.862,-0.000278952
3856.934,-0.00030034
3855.005,-0.000340448
3853.077,-0.000360954
3851.148,-0.000337941
3849.22,-0.000293055
3847.291,-0.000263245
3845.363,-0.000262576
3843.434,-0.000282085
3841.506,-0.000303935
3839.577,-0.000320139
3837.649,-0.00033355
3835.72,-0.000342061
3833.792,-0.000340814
3831.864,-0.000337132
3829.935,-0.000338483
3828.007,-0.000336833
3826.078,-0.000323452
3824.15,-0.000307981
3822.221,-0.000300354
3820.293,-0.000297182
3818.364,-0.000299842
3816.436,-0.000304219
3814.507,-0.000293402
3812.579,-0.000275022
3810.65,-0.000270808
3808.722,-0.000275528
3806.793,-0.00027473
3804.865,-0.000273185
3802.937,-0.000282846
3801.008,-0.000296123
3799.08,-0.000303258
3797.151,-0.000312578
3795.223,-0.000317492
3793.294,-0.000310157
3791.366,-0.000312571
3789.437,-0.000329789
3787.509,-0.00033626
3785.58,-0.000323047
3783.652,-0.000306787
3781.723,-0.000305753
3779.795,-0.000316103
3777.866,-0.000325333
3775.938,-0.000329826
3774.01,-0.00031623
3772.081,-0.000284285
3770.153,-0.000271008
3768.224,-0.000294792
3766.296,-0.000323483
3764.367,-0.000331232
3762.439,-0.000333647
3760.51,-0.000337405
3758.582,-0.000318277
3756.653,-0.000290711
3754.725,-0.000301975
3752.796,-0.000335628
3750.868,-0.000344119
3748.939,-0.000335619
3747.011,-0.000336045
3745.083,-0.000336041
3743.154,-0.000321688
3741.226,-0.000308569
3739.297,-0.000311453
3737.369,-0.000325473
3735.44,-0.000346206
3733.512,-0.000363016
3731.583,-0.000358947
3729.655,-0.000332102
3727.726,-0.000309124
3725.798,-0.00031404
3723.869,-0.000330341
3721.941,-0.000341449
3720.012,-0.00035022
3718.084,-0.000351467
3716.156,-0.000344338
3714.227,-0.000339246
3712.299,-0.00035586
3710.37,-0.000399634
3708.442,-0.000423634
3706.513,-0.000396425
3704.585,-0.00037042
3702.656,-0.000394002
3700.728,-0.00043912
3698.799,-0.00046407
3696.871,-0.00046425
3694.942,-0.000448864
3693.014,-0.000436251
3691.085,-0.000449873
3689.157,-0.000489789
3687.229,-0.000531649
3685.3,-0.000543697
3683.372,-0.000526919
3681.443,-0.000527329
3679.515,-0.000567284
3677.586,-0.000620469
3675.658,-0.000661973
3673.729,-0.000690562
3671.801,-0.000713976
3669.872,-0.000728151
3667.944,-0.000728672
3666.015,-0.000727401
3664.087,-0.000724142
3662.158,-0.000713215
3660.23,-0.000713301
3658.302,-0.000727169
3656.373,-0.000735256
3654.445,-0.000741364
3652.516,-0.000753745
3650.588,-0.000764666
3648.659,-0.00076011
3646.731,-0.000745653
3644.802,-0.000760232
3642.874,-0.00080757
3640.945,-0.000837052
3639.017,-0.000843627
3637.088,-0.000871938
3635.16,-0.000901359
3633.231,-0.000892533
3631.303,-0.00088363
3629.375,-0.000883815
3627.446,-0.000850736
3625.518,-0.000804022
3623.589,-0.000791081
3621.661,-0.00080766
3619.732,-0.000821518
3617.804,-0.000822656
3615.875,-0.000822452
3613.947,-0.000831858
3612.018,-0.000856652
3610.09,-0.00087338
3608.161,-0.000849376
3606.233,-0.000813679
3604.304,-0.000797585
3602.376,-0.000777188
3600.448,-0.000759095
3598.519,-0.000760491
3596.591,-0.000756899
3594.662,-0.000752367
3592.734,-0.000766152
3590.805,-0.000784536
3588.877,-0.000780839
3586.948,-0.000732212
3585.02,-0.00068018
3583.091,-0.000697115
3581.163,-0.000753041
3579.234,-0.000783438
3577.306,-0.000780366
3575.377,-0.000766973
3573.449,-0.000778695
3571.521,-0.000804766
3569.592,-0.000810064
3567.664,-0.000799733
3565.735,-0.000789338
3563.807,-0.000793451
3561.878,-0.000799999
3559.95,-0.000767417
3558.021,-0.000711082
3556.093,-0.000697639
3554.164,-0.000734529
3552.236,-0.000767763
3550.307,-0.000769375
3548.379,-0.000754588
3546.45,-0.000743239
3544.522,-0.000729416
3542.594,-0.000709673
3540.665,-0.000699408
3538.737,-0.000686032
3536.808,-0.00066179
3534.88,-0.000666448
3532.951,-0.000702347
3531.023,-0.000708361
3529.094,-0.000646689
3527.166,-0.000584625
3525.237,-0.000635503
3523.309,-0.000770304
3521.38,-0.000875419
3519.452,-0.000933399
3517.523,-0.000958796
3515.595,-0.000940394
3513.667,-0.000881871
3511.738,-0.000815206
3509.81,-0.000778782
3507.881,-0.000796386
3505.953,-0.000869856
3504.024,-0.000940785
3502.096,-0.000960086
3500.167,-0.000949616
3498.239,-0.000919785
3496.31,-0.000903046
3494.382,-0.000964563
3492.453,-0.001077629
3490.525,-0.001141724
3488.596,-0.001124779
3486.668,-0.001096237
3484.74,-0.001113018
3482.811,-0.001151961
3480.883,-0.00119549
3478.954,-0.001252153
3477.026,-0.001307797
3475.097,-0.00135071
3473.169,-0.00138663
3471.24,-0.001425863
3469.312,-0.001459384
3467.383,-0.001455368
3465.455,-0.001422173
3463.526,-0.001408265
3461.598,-0.001436618
3459.669,-0.001474404
3457.741,-0.001489665
3455.813,-0.001488316
3453.884,-0.001484323
3451.956,-0.001489814
3450.027,-0.001483343
3448.099,-0.001443592
3446.17,-0.001446756
3444.242,-0.001560351
3442.313,-0.001684465
3440.385,-0.001722761
3438.456,-0.001752334
3436.528,-0.001832065
3434.599,-0.001921175
3432.671,-0.001982261
3430.742,-0.001991789
3428.814,-0.001984716
3426.885,-0.002017875
3424.957,-0.002093888
3423.029,-0.002226749
3421.1,-0.002348911
3419.172,-0.002292861
3417.243,-0.002102095
3415.315,-0.002015254
3413.386,-0.002114151
3411.458,-0.002277075
3409.529,-0.002406091
3407.601,-0.002560993
3405.672,-0.002794286
3403.744,-0.002994502
3401.815,-0.003042499
3399.887,-0.002960157
3397.958,-0.002823946
3396.03,-0.002684659
3394.102,-0.002619605
3392.173,-0.002711471
3390.245,-0.002890053
3388.316,-0.002985156
3386.388,-0.002999968
3384.459,-0.003070392
3382.531,-0.003209077
3380.602,-0.003312135
3378.674,-0.003279819
3376.745,-0.003129506
3374.817,-0.003033049
3372.888,-0.003082141
3370.96,-0.003180775
3369.031,-0.003255021
3367.103,-0.003324626
3365.175,-0.003420388
3363.246,-0.003543792
3361.318,-0.003623739
3359.389,-0.003613692
3357.461,-0.003606951
3355.532,-0.003655717
3353.604,-0.003645453
3351.675,-0.003589284
3349.747,-0.00370235
3347.818,-0.003965704
3345.89,-0.004062943
3343.961,-0.003863734
3342.033,-0.003644141
3340.104,-0.003621464
3338.176,-0.00360777
3336.248,-0.003472847
3334.319,-0.003413643
3332.391,-0.003592756
3330.462,-0.003842574
3328.534,-0.003862261
3326.605,-0.003724653
3324.677,-0.003745888
3322.748,-0.003928972
3320.82,-0.004058355
3318.891,-0.004025925
3316.963,-0.003858855
3315.034,-0.00369659
3313.106,-0.003666148
3311.177,-0.003710124
3309.249,-0.003698018
3307.321,-0.0036948
3305.392,-0.003800693
3303.464,-0.003858794
3301.535,-0.003826051
3299.607,-0.003889837
3297.678,-0.003994842
3295.75,-0.003984523
3293.821,-0.003938984
3291.893,-0.004024753
3289.964,-0.00421814
3288.036,-0.004341931
3286.107,-0.004316958
3284.179,-0.004127661
3282.25,-0.003828263
3280.322,-0.003647731
3278.394,-0.003689826
3276.465,-0.003797864
3274.537,-0.003808752
3272.608,-0.003719551
3270.68,-0.00364668
3268.751,-0.003581201
3266.823,-0.003499784
3264.894,-0.003599678
3262.966,-0.003860423
3261.037,-0.004022856
3259.109,-0.004038172
3257.18,-0.003928525
3255.252,-0.003799243
3253.323,-0.00387277
3251.395,-0.004051574
3249.467,-0.004119644
3247.538,-0.004178675
3245.61,-0.004303625
3243.681,-0.004369748
3241.753,-0.004335359
3239.824,-0.004269561
3237.896,-0.004237815
3235.967,-0.004322185
3234.039,-0.004547684
3232.11,-0.004669242
3230.182,-0.004517723
3228.253,-0.004398311
3226.325,-0.004501491
3224.396,-0.004587091
3222.468,-0.004543577
3220.54,-0.004535507
3218.611,-0.004651606
3216.683,-0.004737774
3214.754,-0.004625934
3212.826,-0.004455492
3210.897,-0.004456725
3208.969,-0.004556682
3207.04,-0.004535099
3205.112,-0.004382222
3203.183,-0.004268182
3201.255,-0.004268539
3199.326,-0.004359279
3197.398,-0.004443432
3195.469,-0.004368558
3193.541,-0.004199408
3191.613,-0.004130945
3189.684,-0.004168203
3187.756,-0.004185771
3185.827,-0.004129334
3183.899,-0.004058356
3181.97,-0.004032795
3180.042,-0.004046978
3178.113,-0.004062558
3176.185,-0.004122104
3174.256,-0.004231434
3172.328,-0.004226028
3170.399,-0.004107684
3168.471,-0.004018818
3166.542,-0.003917772
3164.614,-0.003797355
3162.686,-0.003764823
3160.757,-0.003791332
3158.829,-0.003789171
3156.9,-0.003783746
3154.972,-0.003801616
3153.043,-0.003775277
3151.115,-0.003727827
3149.186,-0.003775729
3147.258,-0.003852795
3145.329,-0.003858708
3143.401,-0.003853918
3141.472,-0.003840464
3139.544,-0.003767988
3137.615,-0.003671292
3135.687,-0.003599742
3133.759,-0.003534159
3131.83,-0.003453248
3129.902,-0.003404074
3127.973,-0.003381331
3126.045,-0.003340997
3124.116,-0.003295095
3122.188,-0.003254406
3120.259,-0.003194616
3118.331,-0.003102142
3116.402,-0.00304725
3114.474,-0.003030737
3112.545,-0.002942114
3110.617,-0.002808688
3108.688,-0.002724428
3106.76,-0.002699937
3104.832,-0.002692347
3102.903,-0.002620151
3100.975,-0.002486609
3099.046,-0.002401251
3097.118,-0.002362383
3095.189,-0.002287003
3093.261,-0.002211541
3091.332,-0.002190139
3089.404,-0.002156783
3087.475,-0.002056107
3085.547,-0.001940451
3083.618,-0.001864315
3081.69,-0.001814939
3079.761,-0.001769292
3077.833,-0.001712122
3075.905,-0.00164012
3073.976,-0.00157035
3072.048,-0.001510961
3070.119,-0.001471419
3068.191,-0.001439342
3066.262,-0.001372423
3064.334,-0.001280526
3062.405,-0.001215222
3060.477,-0.001186995
3058.548,-0.001165918
3056.62,-0.001142569
3054.691,-0.001128365
3052.763,-0.00110211
3050.834,-0.001052712
3048.906,-0.00102829
3046.978,-0.001045229
3045.049,-0.00104204
3043.121,-0.000996982
3041.192,-0.000966023
3039.264,-0.000959247
3037.335,-0.000936302
3035.407,-0.00090357
3033.478,-0.000895959
3031.55,-0.000914454
3029.621,-0.000912551
3027.693,-0.000865866
3025.764,-0.000832908
3023.836,-0.000853216
3021.907,-0.000866498
3019.979,-0.000820677
3018.051,-0.00074908
3016.122,-0.000681259
3014.194,-0.000607828
3012.265,-0.00053672
3010.337,-0.000480104
3008.408,-0.000446377
3006.48,-0.000455849
3004.551,-0.000495205
3002.623,-0.000511595
3000.694,-0.000485277
2998.766,-0.000457714
2996.837,-0.00044649
2994.909,-0.000410185
2992.98,-0.000341048
2991.052,-0.00027137
2989.124,-0.000199179
2987.195,-0.000113179
2985.267,-3.06E-05
2983.338,3.15E-05
2981.41,8.86E-05
2979.481,0.000167355
2977.553,0.000252617
2975.624,0.000328163
2973.696,0.000413059
2971.767,0.000515668
2969.839,0.000642334
2967.91,0.000795612
2965.982,0.000945823
2964.053,0.001072239
2962.125,0.001180677
2960.197,0.001277607
2958.268,0.001363968
2956.34,0.001430554
2954.411,0.001464098
2952.483,0.001461002
2950.554,0.001428915
2948.626,0.001387936
2946.697,0.001369695
2944.769,0.001395165
2942.84,0.001461389
2940.912,0.001562757
2938.983,0.001705981
2937.055,0.001894746
2935.126,0.002102838
2933.198,0.002293511
2931.27,0.002466516
2929.341,0.002642948
2927.413,0.0028074
2925.484,0.002916374
2923.556,0.002947502
2921.627,0.002892834
2919.699,0.002747563
2917.77,0.00253546
2915.842,0.002296251
2913.913,0.002052501
2911.985,0.001828041
2910.056,0.001647235
2908.128,0.001499687
2906.199,0.00136795
2904.271,0.001265951
2902.343,0.001207668
2900.414,0.001174311
2898.486,0.00113805
2896.557,0.001098152
2894.629,0.001069217
2892.7,0.001050201
2890.772,0.001026571
2888.843,0.000987347
2886.915,0.00093841
2884.986,0.000898948
2883.058,0.000867184
2881.129,0.000833319
2879.201,0.000817737
2877.272,0.000833106
2875.344,0.00085729
2873.416,0.000880375
2871.487,0.000897815
2869.559,0.000887947
2867.63,0.000856367
2865.702,0.000843912
2863.773,0.000879505
2861.845,0.000963786
2859.916,0.001083258
2857.988,0.001231483
2856.059,0.001398781
2854.131,0.001533303
2852.202,0.001563597
2850.274,0.001469331
2848.345,0.001290223
2846.417,0.001074683
2844.489,0.000864214
2842.56,0.000688764
2840.632,0.00055177
2838.703,0.000452295
2836.775,0.000388318
2834.846,0.000343968
2832.918,0.000304414
2830.989,0.00027219
2829.061,0.000256322
2827.132,0.000246643
2825.204,0.000231781
2823.275,0.000217745
2821.347,0.000206781
2819.418,0.000196723
2817.49,0.000187799
2815.562,0.000179572
2813.633,0.000175005
2811.705,0.000172938
2809.776,0.000163702
2807.848,0.000150154
2805.919,0.000146662
2803.991,0.000149964
2802.062,0.0001417
2800.134,0.000124905
2798.205,0.000118894
2796.277,0.000114243
2794.348,9.93E-05
2792.42,9.07E-05
2790.491,9.20E-05
2788.563,8.94E-05
2786.635,7.99E-05
2784.706,7.21E-05
2782.778,6.96E-05
2780.849,6.46E-05
2778.921,5.60E-05
2776.992,4.69E-05
2775.064,4.02E-05
2773.135,4.09E-05
2771.207,4.54E-05
2769.278,4.75E-05
2767.35,4.58E-05
2765.421,3.86E-05
2763.493,2.89E-05
2761.564,2.20E-05
2759.636,1.56E-05
2757.708,7.72E-06
2755.779,3.93E-07
2753.851,-2.78E-06
2751.922,2.70E-06
2749.994,7.72E-06
2748.065,1.21E-06
2746.137,-6.02E-06
2744.208,2.25E-06
2742.28,2.09E-05
2740.351,2.57E-05
2738.423,8.11E-06
2736.494,-7.67E-06
2734.566,-8.77E-06
2732.637,-1.31E-05
2730.709,-2.82E-05
2728.781,-4.10E-05
2726.852,-4.35E-05
2724.924,-4.19E-05
2722.995,-4.39E-05
2721.067,-4.29E-05
2719.138,-3.26E-05
2717.21,-2.46E-05
2715.281,-2.86E-05
2713.353,-3.91E-05
2711.424,-4.82E-05
2709.496,-4.84E-05
2707.567,-4.01E-05
2705.639,-3.25E-05
2703.71,-3.41E-05
2701.782,-4.45E-05
2699.854,-5.40E-05
2697.925,-5.94E-05
2695.997,-6.49E-05
2694.068,-7.02E-05
2692.14,-7.46E-05
2690.211,-7.00E-05
2688.283,-5.68E-05
2686.354,-5.38E-05
2684.426,-6.26E-05
2682.497,-7.06E-05
2680.569,-7.68E-05
2678.64,-8.11E-05
2676.712,-8.17E-05
2674.783,-7.82E-05
2672.855,-6.72E-05
2670.927,-5.62E-05
2668.998,-5.79E-05
2667.07,-6.25E-05
2665.141,-5.96E-05
2663.213,-5.52E-05
2661.284,-5.05E-05
2659.356,-5.00E-05
2657.427,-6.06E-05
2655.499,-7.69E-05
2653.57,-9.22E-05
2651.642,-0.000102024
2649.713,-0.000105876
2647.785,-0.000105463
2645.856,-0.000101466
2643.928,-0.000104763
2642,-0.000119624
2640.071,-0.000126241
2638.143,-0.000115362
2636.214,-0.000102605
2634.286,-9.77E-05
2632.357,-9.91E-05
2630.429,-0.000111028
2628.5,-0.000135889
2626.572,-0.000154045
2624.643,-0.000149677
2622.715,-0.000139324
2620.786,-0.000139958
2618.858,-0.00014347
2616.929,-0.000130084
2615.001,-0.000101641
2613.073,-9.08E-05
2611.144,-0.000109141
2609.216,-0.000134885
2607.287,-0.00014454
2605.359,-0.000133414
2603.43,-0.000130995
2601.502,-0.000155741
2599.573,-0.000180717
2597.645,-0.000189875
2595.716,-0.000187452
2593.788,-0.000172577
2591.859,-0.000159746
2589.931,-0.000164346
2588.002,-0.000164655
2586.074,-0.000148869
2584.146,-0.000150485
2582.217,-0.000158069
2580.289,-0.000138851
2578.36,-0.000141604
2576.432,-0.000189096
2574.503,-0.000220414
2572.575,-0.000220857
2570.646,-0.000222985
2568.718,-0.000235822
2566.789,-0.000263423
2564.861,-0.000307238
2562.932,-0.000327575
2561.004,-0.000276825
2559.075,-0.000186017
2557.147,-0.000138369
2555.219,-0.000170012
2553.29,-0.000234684
2551.362,-0.000247701
2549.433,-0.000197809
2547.505,-0.000169133
2545.576,-0.000202212
2543.648,-0.000251687
2541.719,-0.000273066
2539.791,-0.000259346
2537.862,-0.000232617
2535.934,-0.00022607
2534.005,-0.000262978
2532.077,-0.000296613
2530.148,-0.000250899
2528.22,-0.000177967
2526.292,-0.000172087
2524.363,-0.000210037
2522.435,-0.000244351
2520.506,-0.000268175
2518.578,-0.000266838
2516.649,-0.000236568
2514.721,-0.000200003
2512.792,-0.000177168
2510.864,-0.000166842
2508.935,-0.000164018
2507.007,-0.000180168
2505.078,-0.00021963
2503.15,-0.00025519
2501.221,-0.000277397
2499.293,-0.000313789
2497.365,-0.000368771
2495.436,-0.000394297
2493.508,-0.000359267
2491.579,-0.000299725
2489.651,-0.000245735
2487.722,-0.000189095
2485.794,-0.000132973
2483.865,-0.000126743
2481.937,-0.000191301
2480.008,-0.000250399
2478.08,-0.000274195
2476.151,-0.000302853
2474.223,-0.00032
2472.294,-0.000329511
2470.366,-0.000346992
2468.438,-0.000337038
2466.509,-0.000322326
2464.581,-0.00031179
2462.652,-0.000269877
2460.724,-0.000259969
2458.795,-0.000307863
2456.867,-0.000334905
2454.938,-0.000323633
2453.01,-0.000308332
2451.081,-0.000319739
2449.153,-0.000350571
2447.224,-0.000341019
2445.296,-0.000281121
2443.367,-0.000233138
2441.439,-0.000238692
2439.51,-0.00028229
2437.582,-0.000323201
2435.654,-0.000321968
2433.725,-0.000278602
2431.797,-0.000233383
2429.868,-0.000204716
2427.94,-0.0002082
2426.011,-0.000252846
2424.083,-0.000286466
2422.154,-0.00025645
2420.226,-0.000195713
2418.297,-0.000159148
2416.369,-0.000162828
2414.44,-0.000206397
2412.512,-0.000247804
2410.583,-0.000260078
2408.655,-0.000278762
2406.727,-0.0002908
2404.798,-0.000268412
2402.87,-0.000250751
2400.941,-0.000255223
2399.013,-0.000248708
2397.084,-0.000230118
2395.156,-0.000231529
2393.227,-0.000253004
2391.299,-0.00027465
2389.37,-0.000291405
2387.442,-0.000298459
2385.513,-0.000285482
2383.585,-0.000252081
2381.656,-0.000219279
2379.728,-0.000206314
2377.8,-0.000190968
2375.871,-0.000136312
2373.943,-6.10E-05
2372.014,2.56E-06
2370.086,6.52E-05
2368.157,0.000118729
2366.229,0.00014015
2364.3,0.000152378
2362.372,0.000179874
2360.443,0.000219867
2358.515,0.0002599
2356.586,0.000267792
2354.658,0.000212696
2352.729,0.000101656
2350.801,-1.48E-05
2348.873,-6.43E-05
2346.944,-1.76E-05
2345.016,6.71E-05
2343.087,0.000104907
2341.159,9.44E-05
2339.23,8.55E-05
2337.302,9.22E-05
2335.373,9.05E-05
2333.445,7.53E-05
2331.516,7.38E-05
2329.588,8.22E-05
2327.659,6.70E-05
2325.731,3.63E-05
2323.802,2.09E-05
2321.874,3.55E-06
2319.946,-5.16E-05
2318.017,-0.000122909
2316.089,-0.000176404
2314.16,-0.000205266
2312.232,-0.000201381
2310.303,-0.000203669
2308.375,-0.000257222
2306.446,-0.00029594
2304.518,-0.000271342
2302.589,-0.000261957
2300.661,-0.000291163
2298.732,-0.000293994
2296.804,-0.000271537
2294.875,-0.000249746
2292.947,-0.000230122
2291.019,-0.000232316
2289.09,-0.00024702
2287.162,-0.000265704
2285.233,-0.000316562
2283.305,-0.000354599
2281.376,-0.000326615
2279.448,-0.000321178
2277.519,-0.000364114
2275.591,-0.000349691
2273.662,-0.000313736
2271.734,-0.000316097
2269.805,-0.000333035
2267.877,-0.000447661
2265.948,-0.00066093
2264.02,-0.000776388
2262.092,-0.000687805
2260.163,-0.000506365
2258.235,-0.000425547
2256.306,-0.000454263
2254.378,-0.000434748
2252.449,-0.000340541
2250.521,-0.000266545
2248.592,-0.00027512
2246.664,-0.000287817
2244.735,-0.000185149
2242.807,-6.32E-05
2240.878,-5.10E-05
2238.95,-0.000111864
2237.021,-7.87E-05
2235.093,0.000135922
2233.165,0.000236695
2231.236,3.56E-05
2229.308,-0.000112283
2227.379,-1.04E-05
2225.451,-5.36E-05
2223.522,-0.000549051
2221.594,-0.001076417
2219.665,-0.001212664
2217.737,-0.001206193
2215.808,-0.001125112
2213.88,-0.000681373
2211.951,-0.000243378
2210.023,-0.000586369
2208.094,-0.001617662
2206.166,-0.002276272
2204.238,-0.002005776
2202.309,-0.001230117
2200.381,-0.000366445
2198.452,7.46E-05
2196.524,-0.000430197
2194.595,-0.001311711
2192.667,-0.001528444
2190.738,-0.001118736
2188.81,-0.000646853
2186.881,4.24E-05
2184.953,0.000934292
2183.024,0.001220863
2181.096,0.000577521
2179.167,-0.000533678
2177.239,-0.001638606
2175.311,-0.002420538
2173.382,-0.002722734
2171.454,-0.002533018
2169.525,-0.002034888
2167.597,-0.001442932
2165.668,-0.00054062
2163.74,0.000544935
2161.811,0.000306689
2159.883,-0.001842112
2157.954,-0.00373694
2156.026,-0.003509107
2154.097,-0.001912549
2152.169,-0.000501336
2150.24,0.00011059
2148.312,-9.41E-05
2146.384,-0.001042853
2144.455,-0.001539374
2142.527,-0.000921095
2140.598,-0.000231821
2138.67,-0.000104866
2136.741,-0.000331804
2134.813,-0.000556597
2132.884,-0.000444107
2130.956,-8.22E-05
2129.027,0.000188596
2127.099,0.000201323
2125.17,-2.54E-05
2123.242,-0.000435129
2121.313,-0.000862521
2119.385,-0.000978574
2117.457,-0.000747662
2115.528,-0.000610367
2113.6,-0.000778493
2111.671,-0.000930868
2109.743,-0.000892916
2107.814,-0.000696499
2105.886,-0.000360877
2103.957,-0.000222021
2102.029,-0.000321372
2100.1,-0.000270264
2098.172,-0.00018205
2096.243,-0.00026555
2094.315,-0.000328473
2092.386,-0.000314939
2090.458,-0.000434066
2088.53,-0.000603725
2086.601,-0.000508283
2084.673,-0.00038691
2082.744,-0.000624802
2080.816,-0.000906456
2078.887,-0.000883252
2076.959,-0.000730517
2075.03,-0.000685401
2073.102,-0.000917657
2071.173,-0.00139202
2069.245,-0.001586393
2067.316,-0.001314458
2065.388,-0.000989638
2063.459,-0.000695445
2061.531,-0.000365333
2059.603,-0.000209247
2057.674,-0.000281221
2055.746,-0.000203266
2053.817,0.000143597
2051.889,4.91E-05
2049.96,-0.000738383
2048.032,-0.001389705
2046.103,-0.001644911
2044.175,-0.002035334
2042.246,-0.002162295
2040.318,-0.001699696
2038.389,-0.00150683
2036.461,-0.002101213
2034.532,-0.002832062
2032.604,-0.002632757
2030.676,-0.001413704
2028.747,-0.000249264
2026.819,5.18E-05
2024.89,-0.000836166
2022.962,-0.002069788
2021.033,-0.001915661
2019.105,-0.000641196
2017.176,0.000459733
2015.248,0.000893819
2013.319,-3.96E-05
2011.391,-0.001760002
2009.462,-0.002164098
2007.534,-0.001007268
2005.605,-8.05E-05
2003.677,-0.000184988
2001.749,-0.00057227
1999.82,-0.000674168
1997.892,-0.000551
1995.963,-0.000357291
1994.035,-0.000295958
1992.106,-0.000592388
1990.178,-0.0009933
1988.249,-0.00116807
1986.321,-0.001151548
1984.392,-0.001046999
1982.464,-0.001105145
1980.535,-0.001105444
1978.607,-0.000404417
1976.678,0.000280118
1974.75,2.62E-05
1972.822,-0.000396142
1970.893,-0.000548083
1968.965,-0.000896142
1967.036,-0.001164156
1965.108,-0.000748838
1963.179,-0.000422429
1961.251,-0.000836149
1959.322,-0.00150097
1957.394,-0.001831626
1955.465,-0.001507219
1953.537,-0.000982364
1951.608,-0.000786751
1949.68,-0.000792056
1947.751,-0.000928452
1945.823,-0.00103755
1943.895,-0.000825198
1941.966,-0.000367688
1940.038,2.77E-05
1938.109,0.00017621
1936.181,0.000134881
1934.252,-6.17E-05
1932.324,-0.000371134
1930.395,-0.000462942
1928.467,-0.000204471
1926.538,-4.16E-05
1924.61,-0.000247362
1922.681,-0.000515237
1920.753,-0.000560464
1918.824,-0.000394337
1916.896,-0.000263472
1914.968,-0.000387597
1913.039,-0.000607754
1911.111,-0.000727328
1909.182,-0.000747339
1907.254,-0.000626094
1905.325,-0.00039705
1903.397,-0.000223019
1901.468,-0.000122958
1899.54,-3.16E-05
1897.611,3.17E-05
1895.683,5.50E-05
1893.754,1.25E-05
1891.826,-0.000117428
1889.897,-0.000241765
1887.969,-0.000304631
1886.041,-0.000332335
1884.112,-0.000347945
1882.184,-0.000390432
1880.255,-0.000433675
1878.327,-0.00039948
1876.398,-0.000300849
1874.47,-0.000230933
1872.541,-0.000253167
1870.613,-0.000327338
1868.684,-0.000373191
1866.756,-0.000405862
1864.827,-0.000468532
1862.899,-0.000475743
1860.97,-0.000372314
1859.042,-0.00030476
1857.114,-0.000389706
1855.185,-0.000521397
1853.257,-0.000548724
1851.328,-0.000484433
1849.4,-0.000436326
1847.471,-0.000428952
1845.543,-0.000416942
1843.614,-0.00039625
1841.686,-0.000382354
1839.757,-0.000378805
1837.829,-0.000395463
1835.9,-0.000406792
1833.972,-0.000385597
1832.043,-0.000365408
1830.115,-0.000364758
1828.187,-0.000367443
1826.258,-0.000365007
1824.33,-0.000354312
1822.401,-0.000354784
1820.473,-0.00036982
1818.544,-0.000371539
1816.616,-0.000365844
1814.687,-0.000364233
1812.759,-0.000358106
1810.83,-0.00035366
1808.902,-0.000363098
1806.973,-0.000380775
1805.045,-0.000385515
1803.116,-0.000377889
1801.188,-0.000383473
1799.26,-0.000398757
1797.331,-0.000398145
1795.403,-0.00038451
1793.474,-0.000377219
1791.546,-0.000373909
1789.617,-0.000369545
1787.689,-0.000374163
1785.76,-0.000383752
1783.832,-0.000384712
1781.903,-0.000383052
1779.975,-0.000384363
1778.046,-0.000381844
1776.118,-0.000380373
1774.189,-0.000380843
1772.261,-0.000372873
1770.333,-0.000366087
1768.404,-0.000372559
1766.476,-0.000382606
1764.547,-0.000387007
1762.619,-0.000380533
1760.69,-0.000356271
1758.762,-0.0003189
1756.833,-0.000271022
1754.905,-0.000210754
1752.976,-0.000157778
1751.048,-0.000123823
1749.119,-9.23E-05
1747.191,-5.71E-05
1745.262,-2.25E-05
1743.334,1.43E-05
1741.406,4.14E-05
1739.477,5.03E-05
1737.549,6.20E-05
1735.62,8.36E-05
1733.692,0.000107054
1731.763,0.000138749
1729.835,0.000167415
1727.906,0.000167338
1725.978,0.000135078
1724.049,9.47E-05
1722.121,6.71E-05
1720.192,4.11E-05
1718.264,-5.44E-06
1716.335,-7.11E-05
1714.407,-0.000129539
1712.479,-0.000165715
1710.55,-0.000191189
1708.622,-0.00020578
1706.693,-0.000188785
1704.765,-0.000141103
1702.836,-7.77E-05
1700.908,1.31E-05
1698.979,0.000150402
1697.051,0.00034937
1695.122,0.000620266
1693.194,0.0009495
1691.265,0.001332222
1689.337,0.001767323
1687.408,0.002234493
1685.48,0.002743986
1683.552,0.003321655
1681.623,0.003945022
1679.695,0.004569076
1677.766,0.005177511
1675.838,0.005768458
1673.909,0.006318268
1671.981,0.006802339
1670.052,0.007232128
1668.124,0.007627989
1666.195,0.007971415
1664.267,0.008232342
1662.338,0.008439083
1660.41,0.00863212
1658.481,0.008781791
1656.553,0.008858863
1654.625,0.00889146
1652.696,0.008896564
1650.768,0.008862795
1648.839,0.008777139
1646.911,0.008633818
1644.982,0.008438925
1643.054,0.008214285
1641.125,0.007994773
1639.197,0.007784672
1637.268,0.007560229
1635.34,0.007338899
1633.411,0.007144433
1631.483,0.006961305
1629.554,0.006791685
1627.626,0.006643188
1625.698,0.006496194
1623.769,0.006357446
1621.841,0.006246857
1619.912,0.00615117
1617.984,0.006042616
1616.055,0.005903231
1614.127,0.005734303
1612.198,0.005551013
1610.27,0.005350506
1608.341,0.005107511
1606.413,0.004825861
1604.484,0.004544039
1602.556,0.004279169
1600.627,0.004022875
1598.699,0.003768602
1596.771,0.003514217
1594.842,0.003267365
1592.914,0.003047997
1590.985,0.002869214
1589.057,0.002733883
1587.128,0.0026473
1585.2,0.002615985
1583.271,0.002631618
1581.343,0.002673914
1579.414,0.002735859
1577.486,0.002835838
1575.557,0.002996928
1573.629,0.003212152
1571.7,0.003453096
1569.772,0.00371002
1567.844,0.003988999
1565.915,0.004301783
1563.987,0.00465318
1562.058,0.005016912
1560.13,0.00537946
1558.201,0.005766727
1556.273,0.006172982
1554.344,0.006563465
1552.416,0.006918155
1550.487,0.007209193
1548.559,0.007413209
1546.63,0.007530458
1544.702,0.007566892
1542.773,0.007530499
1540.845,0.007432096
1538.917,0.007292378
1536.988,0.007127341
1535.06,0.006934127
1533.131,0.006718095
1531.203,0.006482111
1529.274,0.006214162
1527.346,0.005929985
1525.417,0.005663726
1523.489,0.00542449
1521.56,0.005218528
1519.632,0.00504293
1517.703,0.004841236
1515.775,0.00455725
1513.846,0.004201761
1511.918,0.003829197
1509.99,0.003476675
1508.061,0.003149301
1506.133,0.002861688
1504.204,0.002628107
1502.276,0.002430184
1500.347,0.002254048
1498.419,0.002100475
1496.49,0.001970767
1494.562,0.001874236
1492.633,0.001808277
1490.705,0.001748187
1488.776,0.001684145
1486.848,0.001642692
1484.919,0.001651879
1482.991,0.001704273
1481.063,0.00177573
1479.134,0.001860445
1477.206,0.001965438
1475.277,0.002098762
1473.349,0.002286323
1471.42,0.002557862
1469.492,0.002880939
1467.563,0.003166209
1465.635,0.003376937
1463.706,0.003554967
1461.778,0.003730646
1459.849,0.003906823
1457.921,0.004088491
1455.992,0.004249633
1454.064,0.004336487
1452.135,0.004332072
1450.207,0.004265751
1448.279,0.004178113
1446.35,0.004099352
1444.422,0.004029086
1442.493,0.003948513
1440.565,0.003845294
1438.636,0.00371781
1436.708,0.003588223
1434.779,0.003486565
1432.851,0.003412665
1430.922,0.003356923
1428.994,0.003328907
1427.065,0.00333452
1425.137,0.003363533
1423.208,0.003396485
1421.28,0.003404392
1419.352,0.003377676
1417.423,0.003332334
1415.495,0.003272563
1413.566,0.003197101
1411.638,0.003114143
1409.709,0.003035153
1407.781,0.002963983
1405.852,0.002895636
1403.924,0.002831977
1401.995,0.002780189
1400.067,0.00273635
1398.138,0.002690162
1396.21,0.002637431
1394.281,0.002583804
1392.353,0.002537639
1390.425,0.002498366
1388.496,0.002458975
1386.568,0.002415078
1384.639,0.002357569
1382.711,0.002286527
1380.782,0.002225883
1378.854,0.002183043
1376.925,0.002141032
1374.997,0.002093879
1373.068,0.00205492
1371.14,0.002038088
1369.211,0.00203507
1367.283,0.002026636
1365.354,0.002011483
1363.426,0.002003057
1361.498,0.002006972
1359.569,0.002013262
1357.641,0.002011698
1355.712,0.002008061
1353.784,0.002011192
1351.855,0.002016799
1349.927,0.002016713
1347.998,0.002011031
1346.07,0.002005723
1344.141,0.002005779
1342.213,0.002009179
1340.284,0.002007628
1338.356,0.001996826
1336.427,0.001984456
1334.499,0.001981665
1332.571,0.001990112
1330.642,0.002005601
1328.714,0.00202857
1326.785,0.00206179
1324.857,0.002098919
1322.928,0.002126888
1321,0.002144461
1319.071,0.002155403
1317.143,0.002156049
1315.214,0.002144152
1313.286,0.002126565
1311.357,0.002114409
1309.429,0.002111751
1307.5,0.002117414
1305.572,0.002130793
1303.644,0.00214591
1301.715,0.002159712
1299.787,0.002176009
1297.858,0.002195026
1295.93,0.002213855
1294.001,0.002229724
1292.073,0.002240405
1290.144,0.002251979
1288.216,0.002271392
1286.287,0.002288485
1284.359,0.002290633
1282.43,0.002287179
1280.502,0.002295106
1278.573,0.00231194
1276.645,0.002325235
1274.717,0.002335987
1272.788,0.002355302
1270.86,0.002389829
1268.931,0.00243643
1267.003,0.002489312
1265.074,0.002546898
1263.146,0.002607535
1261.217,0.002670579
1259.289,0.002739436
1257.36,0.002808523
1255.432,0.002866984
1253.503,0.002927325
1251.575,0.003006054
1249.646,0.003089611
1247.718,0.003158893
1245.79,0.003212099
1243.861,0.003246566
1241.933,0.003253436
1240.004,0.003232081
1238.076,0.003190818
1236.147,0.003138617
1234.219,0.003080608
1232.29,0.003016879
1230.362,0.002949126
1228.433,0.002885273
1226.505,0.002834682
1224.576,0.002799015
1222.648,0.002775319
1220.719,0.00276616
1218.791,0.002773752
1216.863,0.00279631
1214.934,0.002835827
1213.006,0.002896136
1211.077,0.002969784
1209.149,0.003034787
1207.22,0.003076281
1205.292,0.003093725
1203.363,0.003088841
1201.435,0.003068831
1199.506,0.003041364
1197.578,0.003007441
1195.649,0.002971938
1193.721,0.002933723
1191.792,0.002883085
1189.864,0.002825548
1187.936,0.002767659
1186.007,0.00270815
1184.079,0.002652263
1182.15,0.002593781
1180.222,0.002526182
1178.293,0.002461476
1176.365,0.002408373
1174.436,0.002363828
1172.508,0.002318878
1170.579,0.002274311
1168.651,0.002239759
1166.722,0.002217106
1164.794,0.002205467
1162.865,0.002204367
1160.937,0.002206099
1159.009,0.002204509
1157.08,0.002205076
1155.152,0.002215316
1153.223,0.002229579
1151.295,0.002238245
1149.366,0.002242586
1147.438,0.002245706
1145.509,0.002252876
1143.581,0.002276838
1141.652,0.002314427
1139.724,0.002354725
1137.795,0.002401479
1135.867,0.002450571
1133.938,0.002481189
1132.01,0.002486608
1130.082,0.002481432
1128.153,0.002476813
1126.225,0.002472652
1124.296,0.002466294
1122.368,0.002453934
1120.439,0.002431613
1118.511,0.002404941
1116.582,0.002394002
1114.654,0.002404586
1112.725,0.002421681
1110.797,0.00244774
1108.868,0.002498902
1106.94,0.002568903
1105.011,0.002637623
1103.083,0.002702842
1101.155,0.002776937
1099.226,0.002873188
1097.298,0.003001205
1095.369,0.003165637
1093.441,0.003361845
1091.512,0.003583156
1089.584,0.003826073
1087.655,0.004067186
1085.727,0.004253669
1083.798,0.004331172
1081.87,0.004286074
1079.941,0.004156329
1078.013,0.003985256
1076.084,0.003799587
1074.156,0.003612032
1072.228,0.003420729
1070.299,0.003218609
1068.371,0.002994931
1066.442,0.002758397
1064.514,0.002556022
1062.585,0.002470884
1060.657,0.002560357
1058.728,0.002758898
1056.8,0.002945338
1054.871,0.003069774
1052.943,0.003141851
1051.014,0.003180073
1049.086,0.003187847
1047.157,0.003159689
1045.229,0.003100002
1043.301,0.003021319
1041.372,0.002938668
1039.444,0.002858736
1037.515,0.002784197
1035.587,0.002725472
1033.658,0.002687499
1031.73,0.002663129
1029.801,0.002641964
1027.873,0.002615188
1025.944,0.002579871
1024.016,0.002543148
1022.087,0.00250795
1020.159,0.002463136
1018.23,0.002410847
1016.302,0.002357164
1014.374,0.002291469
1012.445,0.002212908
1010.517,0.00213365
1008.588,0.002061279
1006.66,0.001999028
1004.731,0.001946207
1002.803,0.001899689
1000.874,0.001850547
998.946,0.001792975
997.017,0.001731943
995.089,0.001665181
993.16,0.00158483
991.232,0.001495073
989.303,0.001399116
987.375,0.001297199
985.447,0.00120309
983.518,0.001128566
981.59,0.001068866
979.661,0.001024195
977.733,0.00100383
975.804,0.000995475
973.876,0.000975095
971.947,0.000936656
970.019,0.00088129
968.09,0.000812944
966.162,0.000739818
964.233,0.000658254
962.305,0.00057818
960.376,0.000533186
958.448,0.000523754
956.52,0.000521619
954.591,0.000529255
952.663,0.000550477
950.734,0.000561052
948.806,0.000548904
946.877,0.00053259
944.949,0.000524885
943.02,0.000513256
941.092,0.000503224
939.163,0.000519412
937.235,0.000555389
935.306,0.000583006
933.378,0.000593642
931.449,0.000606224
929.521,0.000630252
927.593,0.00064647
925.664,0.000640053
923.736,0.000624432
921.807,0.000619703
919.879,0.000626184
917.95,0.000632984
916.022,0.000631251
914.093,0.000615445
912.165,0.000593323
910.236,0.000585391
908.308,0.000594317
906.379,0.000600883
904.451,0.000595282
902.522,0.000582895
900.594,0.000570576
898.666,0.000548122
896.737,0.000519317
894.809,0.000517601
892.88,0.000543825
890.952,0.000573683
889.023,0.000597205
887.095,0.000617846
885.166,0.000646092
883.238,0.000672708
881.309,0.000677435
879.381,0.000664217
877.452,0.000663092
875.524,0.000691379
873.595,0.000717605
871.667,0.000716044
869.739,0.000705318
867.81,0.000699607
865.882,0.000690458
863.953,0.000684984
862.025,0.000689035
860.096,0.000690174
858.168,0.000701573
856.239,0.00072681
854.311,0.000727768
852.382,0.000707238
850.454,0.00071095
848.525,0.000722262
846.597,0.000697508
844.668,0.000657879
842.74,0.000637457
840.812,0.000629941
838.883,0.000616629
836.955,0.000596934
835.026,0.000585498
833.098,0.000591058
831.169,0.000603099
829.241,0.000596132
827.312,0.000577044
825.384,0.000590394
823.455,0.000649181
821.527,0.000714977
819.598,0.000757428
817.67,0.000783936
815.741,0.000806984
813.813,0.000845002
811.885,0.00090711
809.956,0.000960669
808.028,0.000971414
806.099,0.000949888
804.171,0.00093476
802.242,0.000948145
800.314,0.000992876
798.385,0.001038097
796.457,0.001049228
794.528,0.001063786
792.6,0.001103302
790.671,0.001111929
788.743,0.001062352
786.814,0.001011191
784.886,0.001013264
782.958,0.001045181
781.029,0.001069468
779.101,0.001054945
777.172,0.001005092
775.244,0.001010429
773.315,0.001090186
771.387,0.001151918
769.458,0.001176009
767.53,0.001214153
765.601,0.001272895
763.673,0.001304016
761.744,0.001287034
759.816,0.001270547
757.887,0.001259407
755.959,0.001207908
754.031,0.001133097
752.102,0.001070456
750.174,0.00104798
748.245,0.001101947
746.317,0.001192799
744.388,0.001225483
742.46,0.001181626
740.531,0.001101508
738.603,0.001061228
736.674,0.00115285
734.746,0.00124861
732.817,0.001172911
730.889,0.001060524
728.96,0.001077793
727.032,0.001168239
725.104,0.001194758
723.175,0.001168584
721.247,0.001190954
719.318,0.001154831
717.39,0.00094514
715.461,0.00074861
713.533,0.000764969
711.604,0.000929092
709.676,0.001118044
707.747,0.001293798
705.819,0.001404262
703.89,0.001398086
701.962,0.001317545
700.033,0.00127959
698.105,0.001242927
696.177,0.001148036
694.248,0.001160759
692.32,0.001299518
690.391,0.001367164
688.463,0.001289311
686.534,0.001112208
684.606,0.000955369
682.677,0.001073631
680.749,0.001400687
678.82,0.001433231
676.892,0.001197437
674.963,0.00095263
673.035,0.000443148
671.106,-9.97E-05
669.178,0.000102086
667.25,0.000841986
665.321,0.00113733
663.393,0.001361836
661.464,0.001894589
659.536,0.002193902
657.607,0.002159354
655.679,0.002232227
653.75,0.002134621
651.822,0.001313353
649.893,0.000652951
647.965,0.001375933
646.036,0.002367107
644.108,0.002290476
642.179,0.002280555
640.251,0.002934392
638.323,0.002768271
636.394,0.001861812
634.466,0.001540936
632.537,0.001408416
630.609,0.001298018
628.68,0.001787002
626.752,0.001894205
624.823,0.001261637
622.895,0.002140237
620.966,0.004353455
619.038,0.004040778
617.109,0.002370432
615.181,0.003863195
613.252,0.005615315
611.324,0.003596011
609.396,0.001828046
607.467,0.003793795
605.539,0.005862434
603.61,0.005256099
601.682,0.004949079
599.753,0.006619728
597.825,0.00690413
595.896,0.004724958
593.968,0.002658618
592.039,0.001555299
590.111,0.002112415
588.182,0.004528077
586.254,0.004538638
584.325,0.001266272
582.397,0.001056414
580.469,0.004407145
578.54,0.005558668
576.612,0.004603565
574.683,0.004100306
572.755,0.004155962
570.826,0.005098995
568.898,0.004306233
566.969,0.002421756
565.041,0.005314283
563.112,0.007151451
561.184,0.002021229
559.255,0.000359274
557.327,0.005926481
555.398,0.008500306
553.47,0.005020292
551.542,-4.36E-05
549.613,-0.003436411
547.685,-0.000636251
545.756,0.007823746
543.828,0.01284504
541.899,0.01116808
539.971,0.00732914
538.042,0.004599711
536.114,0.003165732
534.185,0.001892115
532.257,0.003068744
530.328,0.008171578
528.4,0.01155209
526.471,0.009604654
524.543,0.004927367
522.615,0.001344063
520.686,0.001804777
518.758,0.004843994
516.829,0.005621257
514.901,0.004518593
512.972,0.00542233
511.044,0.00576809
509.115,0.0046199
507.187,0.005867765
505.258,0.006705004
503.33,0.007524876
501.401,0.01278175
499.473,0.01678261
497.544,0.0152184
495.616,0.01191426
493.688,0.009268957
491.759,0.008410186
489.831,0.0100851
487.902,0.01107784
485.974,0.007168646
484.045,0.001768705
482.117,0.002793922
480.188,0.009893749
478.26,0.01483652
476.331,0.01469655
474.403,0.01550209
472.474,0.01910564
470.546,0.01755053
468.617,0.009796679
466.689,0.005108796
464.76,0.006079871
462.832,0.007356091
460.904,0.007169847
458.975,0.00778143
457.047,0.009782495
455.118,0.01259262
453.19,0.01630079
451.261,0.01944571
449.333,0.01956366
447.404,0.01533795
445.476,0.008502581
443.547,0.005121624
441.619,0.007783129
439.69,0.01143972
437.762,0.01251612
435.833,0.01202111
433.905,0.01157841
431.977,0.01243386
430.048,0.01292013
428.12,0.01028565
426.191,0.006972098
424.263,0.006650062
422.334,0.009089169
420.406,0.0118986
418.477,0.01423695
416.549,0.01767129
414.62,0.02033245
412.692,0.01821429
410.763,0.01291565
408.835,0.008308825
406.906,0.006323116
404.978,0.007424163
403.05,0.009740612
401.121,0.01244625
399.193,0.01581972
