Wavenumbers [1/cm],Absorbance
3997.712,-0.000648011
3995.783,-0.00064543
3993.855,-0.000639804
3991.926,-0.000635171
3989.998,-0.000632268
3988.069,-0.000628391
3986.141,-0.000622645
3984.212,-0.000621222
3982.284,-0.000624402
3980.355,-0.000629784
3978.427,-0.000634791
3976.499,-0.000637593
3974.57,-0.000640064
3972.642,-0.000644693
3970.713,-0.000648887
3968.785,-0.000650621
3966.856,-0.00065192
3964.928,-0.000652243
3962.999,-0.000648544
3961.071,-0.00064134
3959.142,-0.000632852
3957.214,-0.000623962
3955.285,-0.000617346
3953.357,-0.000615903
3951.428,-0.000619316
3949.5,-0.0006264
3947.572,-0.0006349
3945.643,-0.000641306
3943.715,-0.000644378
3941.786,-0.000645166
3939.858,-0.000644076
3937.929,-0.000641399
3936.001,-0.000638739
3934.072,-0.000637199
3932.144,-0.000636081
3930.215,-0.000634597
3928.287,-0.000631481
3926.358,-0.000625342
3924.43,-0.00061771
3922.501,-0.000612146
3920.573,-0.00061037
3918.645,-0.000611041
3916.716,-0.000613588
3914.788,-0.000618893
3912.859,-0.000625682
3910.931,-0.000631462
3909.002,-0.000633686
3907.074,-0.000629813
3905.145,-0.000622295
3903.217,-0.000616663
3901.288,-0.000613349
3899.36,-0.000609788
3897.431,-0.000606788
3895.503,-0.000606283
3893.574,-0.000609007
3891.646,-0.000615758
3889.718,-0.000623569
3887.789,-0.000626467
3885.861,-0.000624563
3883.932,-0.000623197
3882.004,-0.00062458
3880.075,-0.000628105
3878.147,-0.000631854
3876.218,-0.00063383
3874.29,-0.000634876
3872.361,-0.00063576
3870.433,-0.000633643
3868.504,-0.000627123
3866.576,-0.000620224
3864.647,-0.000617833
3862.719,-0.000619871
3860.791,-0.000622612
3858.862,-0.000622842
3856.934,-0.000618757
3855.005,-0.000611646
3853.077,-0.000604891
3851.148,-0.000601236
3849.22,-0.000601927
3847.291,-0.000606639
3845.363,-0.000614092
3843.434,-0.000621775
3841.506,-0.000627283
3839.577,-0.000630143
3837.649,-0.000630666
3835.72,-0.000629435
3833.792,-0.000627908
3831.864,-0.000627016
3829.935,-0.00062617
3828.007,-0.000624719
3826.078,-0.000623002
3824.15,-0.000620937
3822.221,-0.000618023
3820.293,-0.000614119
3818.364,-0.000609471
3816.436,-0.000604778
3814.507,-0.000600824
3812.579,-0.000599796
3810.65,-0.000603455
3808.722,-0.000609369
3806.793,-0.00061449
3804.865,-0.000618564
3802.937,-0.000622203
3801.008,-0.00062597
3799.08,-0.000630574
3797.151,-0.000635914
3795.223,-0.000640974
3793.294,-0.000646204
3791.366,-0.00065128
3789.437,-0.000653143
3787.509,-0.000652535
3785.58,-0.00065251
3783.652,-0.000652351
3781.723,-0.000652295
3779.795,-0.000654641
3777.866,-0.000657633
3775.938,-0.000657622
3774.01,-0.000654823
3772.081,-0.000651326
3770.153,-0.000648032
3768.224,-0.000645401
3766.296,-0.000644107
3764.367,-0.000645186
3762.439,-0.000649358
3760.51,-0.000654815
3758.582,-0.000657167
3756.653,-0.000654576
3754.725,-0.000649173
3752.796,-0.000640598
3750.868,-0.000626647
3748.939,-0.000608936
3747.011,-0.000591566
3745.083,-0.000577209
3743.154,-0.000563913
3741.226,-0.000547452
3739.297,-0.000528037
3737.369,-0.000509048
3735.44,-0.000491903
3733.512,-0.000477287
3731.583,-0.000466689
3729.655,-0.000461213
3727.726,-0.00046336
3725.798,-0.000477634
3723.869,-0.000504981
3721.941,-0.00054033
3720.012,-0.000576816
3718.084,-0.00060831
3716.156,-0.000630782
3714.227,-0.000642492
3712.299,-0.000640433
3710.37,-0.000624195
3708.442,-0.000602194
3706.513,-0.000585087
3704.585,-0.000578192
3702.656,-0.000581135
3700.728,-0.000590484
3698.799,-0.000606618
3696.871,-0.000631288
3694.942,-0.000659361
3693.014,-0.000685887
3691.085,-0.000712302
3689.157,-0.000739947
3687.229,-0.000768018
3685.3,-0.000794586
3683.372,-0.000817153
3681.443,-0.000838971
3679.515,-0.000866484
3677.586,-0.00089646
3675.658,-0.000920548
3673.729,-0.000937753
3671.801,-0.000951379
3669.872,-0.000963577
3667.944,-0.000976781
3666.015,-0.000990173
3664.087,-0.001000215
3662.158,-0.001011087
3660.23,-0.001027086
3658.302,-0.001044212
3656.373,-0.001060906
3654.445,-0.001077454
3652.516,-0.00109113
3650.588,-0.001104822
3648.659,-0.001120454
3646.731,-0.001132994
3644.802,-0.00114159
3642.874,-0.001148407
3640.945,-0.001151733
3639.017,-0.001153305
3637.088,-0.00115279
3635.16,-0.001146374
3633.231,-0.001130159
3631.303,-0.001111902
3629.375,-0.001097505
3627.446,-0.001088887
3625.518,-0.00109121
3623.589,-0.001101812
3621.661,-0.001111627
3619.732,-0.001118426
3617.804,-0.001121775
3615.875,-0.001116805
3613.947,-0.001099378
3612.018,-0.001074951
3610.09,-0.001057046
3608.161,-0.001052223
3606.233,-0.001053682
3604.304,-0.001053031
3602.376,-0.001051042
3600.448,-0.001051909
3598.519,-0.00105394
3596.591,-0.00105143
3594.662,-0.001045239
3592.734,-0.001043432
3590.805,-0.001048284
3588.877,-0.001053459
3586.948,-0.00105274
3585.02,-0.001049462
3583.091,-0.001054276
3581.163,-0.001069666
3579.234,-0.001087414
3577.306,-0.00110155
3575.377,-0.001109994
3573.449,-0.001105239
3571.521,-0.001082811
3569.592,-0.0010545
3567.664,-0.001032334
3565.735,-0.00101652
3563.807,-0.001008041
3561.878,-0.0010125
3559.95,-0.001028397
3558.021,-0.001045066
3556.093,-0.001051937
3554.164,-0.001047986
3552.236,-0.001046016
3550.307,-0.001053685
3548.379,-0.001058326
3546.45,-0.001051237
3544.522,-0.001046147
3542.594,-0.001056759
3540.665,-0.001079699
3538.737,-0.001106219
3536.808,-0.001130889
3534.88,-0.001149682
3532.951,-0.001160845
3531.023,-0.001163338
3529.094,-0.001153417
3527.166,-0.001135149
3525.237,-0.001125912
3523.309,-0.001140028
3521.38,-0.001173964
3519.452,-0.001208127
3517.523,-0.001224708
3515.595,-0.001223425
3513.667,-0.001213606
3511.738,-0.001204252
3509.81,-0.001202916
3507.881,-0.001214116
3505.953,-0.001240205
3504.024,-0.001282347
3502.096,-0.001329774
3500.167,-0.001362685
3498.239,-0.001378123
3496.31,-0.001388311
3494.382,-0.001395191
3492.453,-0.001396302
3490.525,-0.001403239
3488.596,-0.00142197
3486.668,-0.001438094
3484.74,-0.001448032
3482.811,-0.001463958
3480.883,-0.001484777
3478.954,-0.001501619
3477.026,-0.001518493
3475.097,-0.001542151
3473.169,-0.001568509
3471.24,-0.001589047
3469.312,-0.001599253
3467.383,-0.001603869
3465.455,-0.001615769
3463.526,-0.00164619
3461.598,-0.001689424
3459.669,-0.001725391
3457.741,-0.001750446
3455.813,-0.001777208
3453.884,-0.001804708
3451.956,-0.001820346
3450.027,-0.001826851
3448.099,-0.001835311
3446.17,-0.001844833
3444.242,-0.001863914
3442.313,-0.001908438
3440.385,-0.001972966
3438.456,-0.002047449
3436.528,-0.002125553
3434.599,-0.00219088
3432.671,-0.002237794
3430.742,-0.002287096
3428.814,-0.002347162
3426.885,-0.002396585
3424.957,-0.002424581
3423.029,-0.002437191
3421.1,-0.002442308
3419.172,-0.002456429
3417.243,-0.002485163
3415.315,-0.002515355
3413.386,-0.002556471
3411.458,-0.002630592
3409.529,-0.002727362
3407.601,-0.002828637
3405.672,-0.002927132
3403.744,-0.003003807
3401.815,-0.003048212
3399.887,-0.003071068
3397.958,-0.003083216
3396.03,-0.003102371
3394.102,-0.003143211
3392.173,-0.003184735
3390.245,-0.003204245
3388.316,-0.003224825
3386.388,-0.003271366
3384.459,-0.003326914
3382.531,-0.003361995
3380.602,-0.00336098
3378.674,-0.003341291
3376.745,-0.003365303
3374.817,-0.00346576
3372.888,-0.003584692
3370.96,-0.003648853
3369.031,-0.00364991
3367.103,-0.00362247
3365.175,-0.00358698
3363.246,-0.0035387
3361.318,-0.003481154
3359.389,-0.003452187
3357.461,-0.003505197
3355.532,-0.003638762
3353.604,-0.003778282
3351.675,-0.003865666
3349.747,-0.003906715
3347.818,-0.003928332
3345.89,-0.003934401
3343.961,-0.003909799
3342.033,-0.003872213
3340.104,-0.003859078
3338.176,-0.003858456
3336.248,-0.003845683
3334.319,-0.003840778
3332.391,-0.003867555
3330.462,-0.003915928
3328.534,-0.003963255
3326.605,-0.003989394
3324.677,-0.003989135
3322.748,-0.003988401
3320.82,-0.003999122
3318.891,-0.00399344
3316.963,-0.003970325
3315.034,-0.003969851
3313.106,-0.003997406
3311.177,-0.004017894
3309.249,-0.004013355
3307.321,-0.003987424
3305.392,-0.00395482
3303.464,-0.003935749
3301.535,-0.003925683
3299.607,-0.00391048
3297.678,-0.003901265
3295.75,-0.003920529
3293.821,-0.003960138
3291.893,-0.003971117
3289.964,-0.003923287
3288.036,-0.003838764
3286.107,-0.003751838
3284.179,-0.003660907
3282.25,-0.003547663
3280.322,-0.0034494
3278.394,-0.003427129
3276.465,-0.003477236
3274.537,-0.003580615
3272.608,-0.003693143
3270.68,-0.003794246
3268.751,-0.003889006
3266.823,-0.003966683
3264.894,-0.003995509
3262.966,-0.00397871
3261.037,-0.003964833
3259.109,-0.003969886
3257.18,-0.003991091
3255.252,-0.004025337
3253.323,-0.004054013
3251.395,-0.004069309
3249.467,-0.004069989
3247.538,-0.004046728
3245.61,-0.004005418
3243.681,-0.003972852
3241.753,-0.003966871
3239.824,-0.003987131
3237.896,-0.00403327
3235.967,-0.004103478
3234.039,-0.004184314
3232.11,-0.004249248
3230.182,-0.004278993
3228.253,-0.004292951
3226.325,-0.004320845
3224.396,-0.004357025
3222.468,-0.004377304
3220.54,-0.004374355
3218.611,-0.004367837
3216.683,-0.004385853
3214.754,-0.004406722
3212.826,-0.004376351
3210.897,-0.004307067
3208.969,-0.004263872
3207.04,-0.004264814
3205.112,-0.004274482
3203.183,-0.004271333
3201.255,-0.004263051
3199.326,-0.004259704
3197.398,-0.004263606
3195.469,-0.004259921
3193.541,-0.004235402
3191.613,-0.004201689
3189.684,-0.004178172
3187.756,-0.004169331
3185.827,-0.004166821
3183.899,-0.004170334
3181.97,-0.004182265
3180.042,-0.004189692
3178.113,-0.004179
3176.185,-0.004145583
3174.256,-0.004088064
3172.328,-0.0040233
3170.399,-0.003975493
3168.471,-0.003945409
3166.542,-0.003929766
3164.614,-0.0039397
3162.686,-0.003976034
3160.757,-0.0040103
3158.829,-0.004009485
3156.9,-0.00397023
3154.972,-0.00391723
3153.043,-0.00388374
3151.115,-0.003874797
3149.186,-0.003867147
3147.258,-0.003852667
3145.329,-0.003835531
3143.401,-0.003802877
3141.472,-0.003747594
3139.544,-0.003666341
3137.615,-0.003571461
3135.687,-0.003487396
3133.759,-0.003431995
3131.83,-0.003392487
3129.902,-0.003346137
3127.973,-0.003292729
3126.045,-0.003237978
3124.116,-0.003183804
3122.188,-0.003133627
3120.259,-0.003085722
3118.331,-0.003038555
3116.402,-0.002998215
3114.474,-0.002966796
3112.545,-0.00293187
3110.617,-0.002882823
3108.688,-0.002824539
3106.76,-0.002763962
3104.832,-0.002704578
3102.903,-0.002649779
3100.975,-0.002598023
3099.046,-0.002538291
3097.118,-0.002463439
3095.189,-0.002379902
3093.261,-0.00229436
3091.332,-0.002209309
3089.404,-0.002131554
3087.475,-0.00206717
3085.547,-0.002013706
3083.618,-0.001966194
3081.69,-0.001921779
3079.761,-0.001875762
3077.833,-0.001823891
3075.905,-0.001767757
3073.976,-0.001709905
3072.048,-0.001649918
3070.119,-0.001592095
3068.191,-0.001540988
3066.262,-0.001492797
3064.334,-0.001446068
3062.405,-0.00140398
3060.477,-0.001366823
3058.548,-0.001333847
3056.62,-0.001305538
3054.691,-0.001282587
3052.763,-0.001262405
3050.834,-0.001243633
3048.906,-0.001228021
3046.978,-0.001214383
3045.049,-0.001200524
3043.121,-0.001184783
3041.192,-0.001166409
3039.264,-0.001148882
3037.335,-0.001136053
3035.407,-0.001127483
3033.478,-0.001117207
3031.55,-0.001098896
3029.621,-0.001074129
3027.693,-0.001048615
3025.764,-0.00102001
3023.836,-0.000982023
3021.907,-0.00093513
3019.979,-0.000883743
3018.051,-0.000834049
3016.122,-0.000794801
3014.194,-0.000770188
3012.265,-0.000755908
3010.337,-0.000749654
3008.408,-0.000751788
3006.48,-0.000753736
3004.551,-0.000745649
3002.623,-0.00072489
3000.694,-0.000692533
2998.766,-0.000656614
2996.837,-0.000624873
2994.909,-0.000592033
2992.98,-0.000549804
2991.052,-0.000500028
2989.124,-0.000446065
2987.195,-0.000384166
2985.267,-0.000311684
2983.338,-0.000231434
2981.41,-0.000149309
2979.481,-7.00E-05
2977.553,1.05E-05
2975.624,9.91E-05
2973.696,0.000195551
2971.767,0.000299181
2969.839,0.000413263
2967.91,0.000537408
2965.982,0.000665682
2964.053,0.000790789
2962.125,0.000906441
2960.197,0.001006695
2958.268,0.001082735
2956.34,0.001124845
2954.411,0.001132833
2952.483,0.00111752
2950.554,0.001091137
2948.626,0.00106617
2946.697,0.001059992
2944.769,0.001087945
2942.84,0.001157319
2940.912,0.001267141
2938.983,0.001408914
2937.055,0.001572901
2935.126,0.0017512
2933.198,0.001935545
2931.27,0.002116827
2929.341,0.002281538
2927.413,0.002411861
2925.484,0.002492005
2923.556,0.002509577
2921.627,0.002457612
2919.699,0.002337274
2917.77,0.002162484
2915.842,0.001957615
2913.913,0.001746208
2911.985,0.001546581
2910.056,0.001371643
2908.128,0.001227754
2906.199,0.001114551
2904.271,0.00102654
2902.343,0.000955689
2900.414,0.000895548
2898.486,0.000843619
2896.557,0.000799149
2894.629,0.000760849
2892.7,0.000727608
2890.772,0.000699077
2888.843,0.000673469
2886.915,0.000647981
2884.986,0.000623215
2883.058,0.000603067
2881.129,0.000591417
2879.201,0.000589284
2877.272,0.000594671
2875.344,0.000604783
2873.416,0.000613976
2871.487,0.000615312
2869.559,0.000608014
2867.63,0.00059876
2865.702,0.000599076
2863.773,0.000624513
2861.845,0.000688597
2859.916,0.000791687
2857.988,0.00091626
2856.059,0.001033951
2854.131,0.001114916
2852.202,0.001136711
2850.274,0.001089782
2848.345,0.000979299
2846.417,0.000821881
2844.489,0.000643006
2842.56,0.000469747
2840.632,0.000321152
2838.703,0.000205894
2836.775,0.000124092
2834.846,7.05E-05
2832.918,3.62E-05
2830.989,1.27E-05
2829.061,-5.53E-06
2827.132,-2.16E-05
2825.204,-3.71E-05
2823.275,-5.11E-05
2821.347,-6.40E-05
2819.418,-7.70E-05
2817.49,-8.73E-05
2815.562,-9.28E-05
2813.633,-9.68E-05
2811.705,-0.00010347
2809.776,-0.000113291
2807.848,-0.0001243
2805.919,-0.00013423
2803.991,-0.000141097
2802.062,-0.000146559
2800.134,-0.000152466
2798.205,-0.000155072
2796.277,-0.000151637
2794.348,-0.000147255
2792.42,-0.000147902
2790.491,-0.00015425
2788.563,-0.000164601
2786.635,-0.000177993
2784.706,-0.000192444
2782.778,-0.000206284
2780.849,-0.000218188
2778.921,-0.000225724
2776.992,-0.000228109
2775.064,-0.000227699
2773.135,-0.000226756
2771.207,-0.00022663
2769.278,-0.000227987
2767.35,-0.000231027
2765.421,-0.000236659
2763.493,-0.000244484
2761.564,-0.000251647
2759.636,-0.000255994
2757.708,-0.000257698
2755.779,-0.000256827
2753.851,-0.000253389
2751.922,-0.000250171
2749.994,-0.000249486
2748.065,-0.000250761
2746.137,-0.000253622
2744.208,-0.000256582
2742.28,-0.000257477
2740.351,-0.00025829
2738.423,-0.0002624
2736.494,-0.000268938
2734.566,-0.000276646
2732.637,-0.000283108
2730.709,-0.000291172
2728.781,-0.000297898
2726.852,-0.0003017
2724.924,-0.000302595
2722.995,-0.000300943
2721.067,-0.000298782
2719.138,-0.000298459
2717.21,-0.000299829
2715.281,-0.000301137
2713.353,-0.000301201
2711.424,-0.000302028
2709.496,-0.000305955
2707.567,-0.000311989
2705.639,-0.000317817
2703.71,-0.000321939
2701.782,-0.000325514
2699.854,-0.000329719
2697.925,-0.000332173
2695.997,-0.000330731
2694.068,-0.00032701
2692.14,-0.000324683
2690.211,-0.000325284
2688.283,-0.000327914
2686.354,-0.000331494
2684.426,-0.000335158
2682.497,-0.000338832
2680.569,-0.000341085
2678.64,-0.000339104
2676.712,-0.00033448
2674.783,-0.000332366
2672.855,-0.00033412
2670.927,-0.00033766
2668.998,-0.000341306
2667.07,-0.000344925
2665.141,-0.000348599
2663.213,-0.000352365
2661.284,-0.000355939
2659.356,-0.000358055
2657.427,-0.000359637
2655.499,-0.000364284
2653.57,-0.000372196
2651.642,-0.000378477
2649.713,-0.000379471
2647.785,-0.000378773
2645.856,-0.000381861
2643.928,-0.00038848
2642,-0.000395138
2640.071,-0.000397559
2638.143,-0.000392823
2636.214,-0.00038359
2634.286,-0.000374019
2632.357,-0.000363882
2630.429,-0.000354116
2628.5,-0.00035106
2626.572,-0.000357585
2624.643,-0.000369753
2622.715,-0.000383391
2620.786,-0.000395604
2618.858,-0.000403179
2616.929,-0.0004065
2615.001,-0.000410875
2613.073,-0.000420319
2611.144,-0.000433386
2609.216,-0.000444018
2607.287,-0.000448656
2605.359,-0.000450717
2603.43,-0.00045275
2601.502,-0.000452823
2599.573,-0.000448005
2597.645,-0.000439498
2595.716,-0.00043503
2593.788,-0.000436627
2591.859,-0.000435904
2589.931,-0.000428429
2588.002,-0.000418185
2586.074,-0.000410622
2584.146,-0.000408854
2582.217,-0.00041283
2580.289,-0.000420576
2578.36,-0.000428856
2576.432,-0.000433183
2574.503,-0.000431875
2572.575,-0.000430691
2570.646,-0.000434542
2568.718,-0.000439143
2566.789,-0.000442257
2564.861,-0.00044839
2562.932,-0.000461227
2561.004,-0.000480759
2559.075,-0.000496936
2557.147,-0.000501133
2555.219,-0.000503066
2553.29,-0.00051324
2551.362,-0.00052401
2549.433,-0.000522017
2547.505,-0.000506958
2545.576,-0.000488322
2543.648,-0.000473683
2541.719,-0.000463144
2539.791,-0.000452138
2537.862,-0.000447626
2535.934,-0.000461981
2534.005,-0.000485699
2532.077,-0.000496493
2530.148,-0.00048914
2528.22,-0.000474666
2526.292,-0.000458573
2524.363,-0.000435689
2522.435,-0.000410508
2520.506,-0.000406692
2518.578,-0.000439106
2516.649,-0.000490555
2514.721,-0.00053292
2512.792,-0.000555225
2510.864,-0.000561452
2508.935,-0.000555249
2507.007,-0.000539504
2505.078,-0.000521876
2503.15,-0.000515435
2501.221,-0.000532313
2499.293,-0.000564299
2497.365,-0.000585776
2495.436,-0.000584408
2493.508,-0.000565163
2491.579,-0.000537459
2489.651,-0.000515313
2487.722,-0.000511818
2485.794,-0.000529541
2483.865,-0.00055825
2481.937,-0.0005848
2480.008,-0.000599449
2478.08,-0.000597646
2476.151,-0.000585888
2474.223,-0.000577485
2472.294,-0.000579196
2470.366,-0.000585106
2468.438,-0.000588795
2466.509,-0.000590389
2464.581,-0.000593934
2462.652,-0.000588088
2460.724,-0.0005804
2458.795,-0.000576281
2456.867,-0.00058601
2454.938,-0.000607469
2453.01,-0.000626273
2451.081,-0.000629158
2449.153,-0.000614516
2447.224,-0.000590791
2445.296,-0.00056813
2443.367,-0.000552025
2441.439,-0.000539878
2439.51,-0.000527949
2437.582,-0.000516238
2435.654,-0.00050697
2433.725,-0.000505509
2431.797,-0.000514004
2429.868,-0.000529859
2427.94,-0.0005491
2426.011,-0.000567078
2424.083,-0.000582716
2422.154,-0.00059567
2420.226,-0.000600763
2418.297,-0.00059506
2416.369,-0.000584302
2414.44,-0.000575702
2412.512,-0.000570657
2410.583,-0.000569801
2408.655,-0.000573503
2406.727,-0.000578525
2404.798,-0.000585995
2402.87,-0.000599951
2400.941,-0.000614867
2399.013,-0.000622134
2397.084,-0.000620414
2395.156,-0.000610001
2393.227,-0.000593361
2391.299,-0.000576532
2389.37,-0.000555513
2387.442,-0.000507798
2385.513,-0.000406393
2383.585,-0.000231242
2381.656,3.19E-05
2379.728,0.000389562
2377.8,0.000831001
2375.871,0.001334725
2373.943,0.001877554
2372.014,0.00243203
2370.086,0.002966117
2368.157,0.003456288
2366.229,0.003887168
2364.3,0.004236756
2362.372,0.004475482
2360.443,0.00455574
2358.515,0.004410305
2356.586,0.004021294
2354.658,0.003485831
2352.729,0.002967465
2350.801,0.002580848
2348.873,0.002379165
2346.944,0.002379622
2345.016,0.002547824
2343.087,0.002812124
2341.159,0.003062989
2339.23,0.003196757
2337.302,0.003178144
2335.373,0.003057187
2333.445,0.002921683
2331.516,0.002792845
2329.588,0.002667319
2327.659,0.002534585
2325.731,0.00237863
2323.802,0.0021854
2321.874,0.001962843
2319.946,0.001730438
2318.017,0.00149123
2316.089,0.001243998
2314.16,0.00100507
2312.232,0.000788932
2310.303,0.000592019
2308.375,0.000410086
2306.446,0.000246872
2304.518,0.000104435
2302.589,-1.79E-05
2300.661,-0.000127759
2298.732,-0.000231841
2296.804,-0.000324197
2294.875,-0.000394491
2292.947,-0.000438789
2291.019,-0.000461905
2289.09,-0.00048625
2287.162,-0.000526678
2285.233,-0.000570484
2283.305,-0.000614326
2281.376,-0.000667402
2279.448,-0.000713655
2277.519,-0.000735142
2275.591,-0.000731764
2273.662,-0.000706335
2271.734,-0.000668334
2269.805,-0.000628478
2267.877,-0.000583418
2265.948,-0.000532147
2264.02,-0.000490325
2262.092,-0.000469021
2260.163,-0.000462259
2258.235,-0.000471993
2256.306,-0.000511836
2254.378,-0.000583071
2252.449,-0.00067469
2250.521,-0.000756068
2248.592,-0.000799883
2246.664,-0.000800657
2244.735,-0.000767545
2242.807,-0.000744384
2240.878,-0.00079374
2238.95,-0.000912766
2237.021,-0.001035929
2235.093,-0.001110895
2233.165,-0.001113663
2231.236,-0.001064814
2229.308,-0.001031042
2227.379,-0.001027536
2225.451,-0.001020994
2223.522,-0.001052679
2221.594,-0.001207038
2219.665,-0.001430505
2217.737,-0.001586488
2215.808,-0.001619792
2213.88,-0.001541031
2211.951,-0.001412425
2210.023,-0.001343286
2208.094,-0.001322335
2206.166,-0.00122848
2204.238,-0.001033759
2202.309,-0.000808623
2200.381,-0.000625554
2198.452,-0.000543399
2196.524,-0.000569164
2194.595,-0.000641356
2192.667,-0.000735674
2190.738,-0.000902877
2188.81,-0.001111162
2186.881,-0.001226913
2184.953,-0.001202312
2183.024,-0.001151819
2181.096,-0.001227457
2179.167,-0.001488228
2177.239,-0.001854971
2175.311,-0.002125405
2173.382,-0.002158227
2171.454,-0.002064197
2169.525,-0.002036265
2167.597,-0.001947893
2165.668,-0.001587659
2163.74,-0.001049523
2161.811,-0.00055792
2159.883,-0.00033491
2157.954,-0.000388185
2156.026,-0.00041767
2154.097,-0.000205115
2152.169,0.000101837
2150.24,0.000300831
2148.312,0.000464815
2146.384,0.000701293
2144.455,0.000855066
2142.527,0.000715481
2140.598,0.000209842
2138.67,-0.000478707
2136.741,-0.001082531
2134.813,-0.001436875
2132.884,-0.001528872
2130.956,-0.001450945
2129.027,-0.001296091
2127.099,-0.00109676
2125.17,-0.000917076
2123.242,-0.000826897
2121.313,-0.000781367
2119.385,-0.000728748
2117.457,-0.000687425
2115.528,-0.000648632
2113.6,-0.000580775
2111.671,-0.000517307
2109.743,-0.000515584
2107.814,-0.000585529
2105.886,-0.000720111
2103.957,-0.000885649
2102.029,-0.001032113
2100.1,-0.001146884
2098.172,-0.001215936
2096.243,-0.001204259
2094.315,-0.001108354
2092.386,-0.000993066
2090.458,-0.000914202
2088.53,-0.000844808
2086.601,-0.000756817
2084.673,-0.000670992
2082.744,-0.000645338
2080.816,-0.000740416
2078.887,-0.000937661
2076.959,-0.001152466
2075.03,-0.00130613
2073.102,-0.001362011
2071.173,-0.001329382
2069.245,-0.001248345
2067.316,-0.001155166
2065.388,-0.001042212
2063.459,-0.0008911
2061.531,-0.000776232
2059.603,-0.000816067
2057.674,-0.001025459
2055.746,-0.001352057
2053.817,-0.001703397
2051.889,-0.001945055
2049.96,-0.002037237
2048.032,-0.002029083
2046.103,-0.001947077
2044.175,-0.001767115
2042.246,-0.001495872
2040.318,-0.001226551
2038.389,-0.001117723
2036.461,-0.001262858
2034.532,-0.001494948
2032.604,-0.001589159
2030.676,-0.001581139
2028.747,-0.001573693
2026.819,-0.001541838
2024.89,-0.001430544
2022.962,-0.001205834
2021.033,-0.000906687
2019.105,-0.00068655
2017.176,-0.000584336
2015.248,-0.000482437
2013.319,-0.000457972
2011.391,-0.000654447
2009.462,-0.000923827
2007.534,-0.00107337
2005.605,-0.001227694
2003.677,-0.001561747
2001.749,-0.001913052
1999.82,-0.001934917
1997.892,-0.001498843
1995.963,-0.000851425
1994.035,-0.000371269
1992.106,-0.000208767
1990.178,-0.000250289
1988.249,-0.000417601
1986.321,-0.000728079
1984.392,-0.001139543
1982.464,-0.001551678
1980.535,-0.001747191
1978.607,-0.001661681
1976.678,-0.001576267
1974.75,-0.001671706
1972.822,-0.001805447
1970.893,-0.001791958
1968.965,-0.001603659
1967.036,-0.001265179
1965.108,-0.000851841
1963.179,-0.000561082
1961.251,-0.000420497
1959.322,-0.000384507
1957.394,-0.000538451
1955.465,-0.00080324
1953.537,-0.000937733
1951.608,-0.000909537
1949.68,-0.000898063
1947.751,-0.000985887
1945.823,-0.001079033
1943.895,-0.001114334
1941.966,-0.001139168
1940.038,-0.001188651
1938.109,-0.00123204
1936.181,-0.001237886
1934.252,-0.0012041
1932.324,-0.001157568
1930.395,-0.001131897
1928.467,-0.001110365
1926.538,-0.001040687
1924.61,-0.00093119
1922.681,-0.000860345
1920.753,-0.000858724
1918.824,-0.000875695
1916.896,-0.000873017
1914.968,-0.000850921
1913.039,-0.000821877
1911.111,-0.00080236
1909.182,-0.000797513
1907.254,-0.000796162
1905.325,-0.000811018
1903.397,-0.000864518
1901.468,-0.000929924
1899.54,-0.00095176
1897.611,-0.000913682
1895.683,-0.000841884
1893.754,-0.000775208
1891.826,-0.00073284
1889.897,-0.000705333
1887.969,-0.000685612
1886.041,-0.000676987
1884.112,-0.000665246
1882.184,-0.000633594
1880.255,-0.000592836
1878.327,-0.000560037
1876.398,-0.000537753
1874.47,-0.000527566
1872.541,-0.000526559
1870.613,-0.000527885
1868.684,-0.000543287
1866.756,-0.000582016
1864.827,-0.000621695
1862.899,-0.000641677
1860.97,-0.000647647
1859.042,-0.000646317
1857.114,-0.000636743
1855.185,-0.00062177
1853.257,-0.00060924
1851.328,-0.000607278
1849.4,-0.000617434
1847.471,-0.000631748
1845.543,-0.000637675
1843.614,-0.000631391
1841.686,-0.000620889
1839.757,-0.000613412
1837.829,-0.000609426
1835.9,-0.000604232
1833.972,-0.000594755
1832.043,-0.000583539
1830.115,-0.000573957
1828.187,-0.000566146
1826.258,-0.000567019
1824.33,-0.000569575
1822.401,-0.000578529
1820.473,-0.000598537
1818.544,-0.000625457
1816.616,-0.000643002
1814.687,-0.000643312
1812.759,-0.000635949
1810.83,-0.000632176
1808.902,-0.000633839
1806.973,-0.000636363
1805.045,-0.00063734
1803.116,-0.000637644
1801.188,-0.000636053
1799.26,-0.000629566
1797.331,-0.00061745
1795.403,-0.000604296
1793.474,-0.000596909
1791.546,-0.000597419
1789.617,-0.000602887
1787.689,-0.000611985
1785.76,-0.000623726
1783.832,-0.000633418
1781.903,-0.000634916
1779.975,-0.000626822
1778.046,-0.00061294
1776.118,-0.00059942
1774.189,-0.000592686
1772.261,-0.00059296
1770.333,-0.00059613
1768.404,-0.000599879
1766.476,-0.000602964
1764.547,-0.000601337
1762.619,-0.000590258
1760.69,-0.000567762
1758.762,-0.000534305
1756.833,-0.000494373
1754.905,-0.00045433
1752.976,-0.000414991
1751.048,-0.000374988
1749.119,-0.000337437
1747.191,-0.000306029
1745.262,-0.000280943
1743.334,-0.000258338
1741.406,-0.000232147
1739.477,-0.000199626
1737.549,-0.000163868
1735.62,-0.000129931
1733.692,-9.82E-05
1731.763,-7.50E-05
1729.835,-6.63E-05
1727.906,-7.48E-05
1725.978,-9.81E-05
1724.049,-0.000131608
1722.121,-0.00017145
1720.192,-0.000215461
1718.264,-0.000261886
1716.335,-0.000308037
1714.407,-0.00035083
1712.479,-0.000385636
1710.55,-0.000406226
1708.622,-0.000407764
1706.693,-0.00038781
1704.765,-0.000342963
1702.836,-0.00026729
1700.908,-0.000154476
1698.979,2.47E-07
1697.051,0.000200545
1695.122,0.000451925
1693.194,0.000764046
1691.265,0.001143177
1689.337,0.001586007
1687.408,0.002083062
1685.48,0.002624197
1683.552,0.0031992
1681.623,0.00379715
1679.695,0.004399178
1677.766,0.00498894
1675.838,0.005553127
1673.909,0.006083066
1671.981,0.006571865
1670.052,0.007009391
1668.124,0.007398871
1666.195,0.007727745
1664.267,0.008001887
1662.338,0.008229432
1660.41,0.008415502
1658.481,0.008557523
1656.553,0.008649799
1654.625,0.008693168
1652.696,0.008692426
1650.768,0.008646503
1648.839,0.008551765
1646.911,0.008409387
1644.982,0.008230151
1643.054,0.008029922
1641.125,0.007816725
1639.197,0.007592387
1637.268,0.007367419
1635.34,0.007155896
1633.411,0.006961566
1631.483,0.006779392
1629.554,0.006604099
1627.626,0.006434083
1625.698,0.006274359
1623.769,0.006131179
1621.841,0.006000432
1619.912,0.005874263
1617.984,0.005748066
1616.055,0.005613474
1614.127,0.005459736
1612.198,0.00527833
1610.27,0.00506299
1608.341,0.004813775
1606.413,0.004542568
1604.484,0.004264466
1602.556,0.00398889
1600.627,0.003719708
1598.699,0.003460962
1596.771,0.003217744
1594.842,0.002998414
1592.914,0.00280586
1590.985,0.002640063
1589.057,0.002506546
1587.128,0.002412972
1585.2,0.002364546
1583.271,0.00236554
1581.343,0.002413621
1579.414,0.002502461
1577.486,0.002628806
1575.557,0.002793109
1573.629,0.002992222
1571.7,0.003222068
1569.772,0.003481974
1567.844,0.003773874
1565.915,0.00409854
1563.987,0.0044537
1562.058,0.004832762
1560.13,0.005226427
1558.201,0.005623493
1556.273,0.006016994
1554.344,0.006384152
1552.416,0.006709008
1550.487,0.006974988
1548.559,0.007174098
1546.63,0.00730194
1544.702,0.007354793
1542.773,0.007336097
1540.845,0.007255811
1538.917,0.007124561
1536.988,0.006953579
1535.06,0.006747815
1533.131,0.006513443
1531.203,0.006259955
1529.274,0.006001321
1527.346,0.005751564
1525.417,0.005517412
1523.489,0.005297752
1521.56,0.005081714
1519.632,0.004855415
1517.703,0.004605466
1515.775,0.004324076
1513.846,0.004010538
1511.918,0.00367256
1509.99,0.003328024
1508.061,0.003001113
1506.133,0.002709265
1504.204,0.002455299
1502.276,0.002236589
1500.347,0.002051294
1498.419,0.001899055
1496.49,0.001777226
1494.562,0.001679034
1492.633,0.001597201
1490.705,0.001530817
1488.776,0.00148451
1486.848,0.001460737
1484.919,0.001460723
1482.991,0.001485423
1481.063,0.001539696
1479.134,0.001630942
1477.206,0.001765677
1475.277,0.001944754
1473.349,0.002160504
1471.42,0.002399241
1469.492,0.002645895
1467.563,0.002889971
1465.635,0.003127979
1463.706,0.003357157
1461.778,0.003570327
1459.849,0.003759767
1457.921,0.003918993
1455.992,0.004040805
1454.064,0.004113721
1452.135,0.004129664
1450.207,0.004091078
1448.279,0.00401333
1446.35,0.003918335
1444.422,0.003818822
1442.493,0.003717265
1440.565,0.003612729
1438.636,0.003505651
1436.708,0.003399425
1434.779,0.003301813
1432.851,0.003221805
1430.922,0.003166875
1428.994,0.003141166
1427.065,0.003147967
1425.137,0.003173196
1423.208,0.003202014
1421.28,0.003218894
1419.352,0.003211441
1417.423,0.003174398
1415.495,0.003111318
1413.566,0.003029713
1411.638,0.002939452
1409.709,0.002852176
1407.781,0.002776298
1405.852,0.002712681
1403.924,0.002657644
1401.995,0.002606072
1400.067,0.002554113
1398.138,0.002501768
1396.21,0.002451146
1394.281,0.002403642
1392.353,0.002358809
1390.425,0.002314812
1388.496,0.002267277
1386.568,0.002216961
1384.639,0.002164406
1382.711,0.002108018
1380.782,0.002050159
1378.854,0.001995702
1376.925,0.001951799
1374.997,0.001920447
1373.068,0.001898016
1371.14,0.001879999
1369.211,0.001865327
1367.283,0.001854853
1365.354,0.001846931
1363.426,0.0018382
1361.498,0.001828408
1359.569,0.001821348
1357.641,0.001818563
1355.712,0.001817015
1353.784,0.001815154
1351.855,0.001815347
1349.927,0.001818508
1347.998,0.001822589
1346.07,0.001824686
1344.141,0.00182322
1342.213,0.001820222
1340.284,0.001818678
1338.356,0.001817545
1336.427,0.001815543
1334.499,0.001815968
1332.571,0.001823236
1330.642,0.001839244
1328.714,0.00186273
1326.785,0.001889367
1324.857,0.001915242
1322.928,0.001939442
1321,0.001960472
1319.071,0.001972849
1317.143,0.0019726
1315.214,0.001963892
1313.286,0.001954798
1311.357,0.001949974
1309.429,0.001949175
1307.5,0.001949984
1305.572,0.001951554
1303.644,0.00195545
1301.715,0.001962347
1299.787,0.001969639
1297.858,0.001975941
1295.93,0.001985262
1294.001,0.002000732
1292.073,0.002020362
1290.144,0.002040064
1288.216,0.002056198
1286.287,0.002066679
1284.359,0.002072364
1282.43,0.002076609
1280.502,0.002082394
1278.573,0.002091138
1276.645,0.002104857
1274.717,0.002125494
1272.788,0.002153342
1270.86,0.002187877
1268.931,0.00222803
1267.003,0.002272076
1265.074,0.002320032
1263.146,0.002374513
1261.217,0.002436377
1259.289,0.002503135
1257.36,0.00257366
1255.432,0.002648523
1253.503,0.002725617
1251.575,0.00280048
1249.646,0.002868659
1247.718,0.00292613
1245.79,0.002969525
1243.861,0.002996049
1241.933,0.003002809
1240.004,0.00298845
1238.076,0.002955444
1236.147,0.002907758
1234.219,0.002848245
1232.29,0.002780384
1230.362,0.002709977
1228.433,0.002643247
1226.505,0.002585259
1224.576,0.002539984
1222.648,0.002511246
1220.719,0.002502566
1218.791,0.00251591
1216.863,0.002549896
1214.934,0.00259957
1213.006,0.002657784
1211.077,0.00271665
1209.149,0.002768903
1207.22,0.002808672
1205.292,0.002831707
1203.363,0.002837035
1201.435,0.002826763
1199.506,0.002805777
1197.578,0.002779383
1195.649,0.002748624
1193.721,0.002710711
1191.792,0.002664483
1189.864,0.002611428
1187.936,0.002553245
1186.007,0.002491651
1184.079,0.002428889
1182.15,0.002367635
1180.222,0.002310922
1178.293,0.002260384
1176.365,0.002214989
1174.436,0.002173311
1172.508,0.002136054
1170.579,0.002105561
1168.651,0.002083429
1166.722,0.00206989
1164.794,0.002066016
1162.865,0.002072458
1160.937,0.002086219
1159.009,0.002102314
1157.08,0.002116609
1155.152,0.002127461
1153.223,0.002136261
1151.295,0.002144299
1149.366,0.002150814
1147.438,0.002157211
1145.509,0.002168535
1143.581,0.002187998
1141.652,0.00221525
1139.724,0.002248675
1137.795,0.002284838
1135.867,0.002319089
1133.938,0.002348437
1132.01,0.00237092
1130.082,0.002384223
1128.153,0.002387818
1126.225,0.002383674
1124.296,0.002374004
1122.368,0.00236093
1120.439,0.002347277
1118.511,0.002335948
1116.582,0.002329747
1114.654,0.002333129
1112.725,0.002351678
1110.797,0.00238795
1108.868,0.002440432
1106.94,0.00250635
1105.011,0.002582276
1103.083,0.002665077
1101.155,0.002755958
1099.226,0.002861342
1097.298,0.002990231
1095.369,0.003151597
1093.441,0.003349277
1091.512,0.003575795
1089.584,0.003809685
1087.655,0.004020041
1085.727,0.004176358
1083.798,0.004256841
1081.87,0.004252552
1079.941,0.004169816
1078.013,0.004028469
1076.084,0.003851206
1074.156,0.003651841
1072.228,0.003433349
1070.299,0.003200074
1068.371,0.002973222
1066.442,0.002787717
1064.514,0.002670966
1062.585,0.002632574
1060.657,0.00267025
1058.728,0.002772961
1056.8,0.002916223
1054.871,0.003063564
1052.943,0.003176934
1051.014,0.003235476
1049.086,0.003244014
1047.157,0.003218502
1045.229,0.003169109
1043.301,0.003100143
1041.372,0.00301802
1039.444,0.002933986
1037.515,0.002860288
1035.587,0.002804191
1033.658,0.00276545
1031.73,0.002738782
1029.801,0.002717396
1027.873,0.002694838
1025.944,0.002666252
1024.016,0.002628636
1022.087,0.002582913
1020.159,0.002531741
1018.23,0.00247482
1016.302,0.002411138
1014.374,0.002340441
1012.445,0.002262576
1010.517,0.002180563
1008.588,0.002100951
1006.66,0.00202913
1004.731,0.0019664
1002.803,0.001911786
1000.874,0.001861456
998.946,0.00180854
997.017,0.001747591
995.089,0.001673886
993.16,0.001582574
991.232,0.00147535
989.303,0.001361485
987.375,0.001250635
985.447,0.001149845
983.518,0.001065026
981.59,0.000999407
979.661,0.000951253
977.733,0.000915503
975.804,0.000885054
973.876,0.000851178
971.947,0.000806445
970.019,0.000748427
968.09,0.000680829
966.162,0.000610998
964.233,0.000546643
962.305,0.000493489
960.376,0.000454766
958.448,0.000431379
956.52,0.000421607
954.591,0.000421104
952.663,0.000422997
950.734,0.000421071
948.806,0.000413359
946.877,0.000401736
944.949,0.000389959
943.02,0.000381774
941.092,0.000380578
939.163,0.000388459
937.235,0.00040294
935.306,0.000418878
933.378,0.000431968
931.449,0.000439858
929.521,0.000443845
927.593,0.00044726
925.664,0.000450442
923.736,0.000451688
921.807,0.000454963
919.879,0.000466374
917.95,0.000482229
916.022,0.000493336
914.093,0.000495283
912.165,0.00048906
910.236,0.000478993
908.308,0.000468518
906.379,0.00045784
904.451,0.000448284
902.522,0.000442118
900.594,0.000436989
898.666,0.000428309
896.737,0.000416361
894.809,0.000405569
892.88,0.000399973
890.952,0.000403754
889.023,0.000420344
887.095,0.000447836
885.166,0.000480097
883.238,0.000511651
881.309,0.000540282
879.381,0.000565885
877.452,0.000586869
875.524,0.000601553
873.595,0.000610354
871.667,0.000612249
869.739,0.000606449
867.81,0.000597557
865.882,0.000591202
863.953,0.000588518
862.025,0.000588117
860.096,0.000588364
858.168,0.000587934
856.239,0.000587661
854.311,0.000587994
852.382,0.000584951
850.454,0.000579385
848.525,0.000580583
846.597,0.000588965
844.668,0.00059294
842.74,0.000585328
840.812,0.000567893
838.883,0.000547029
836.955,0.000531833
835.026,0.000525977
833.098,0.000523751
831.169,0.000523058
829.241,0.000528987
827.312,0.000541689
825.384,0.000556804
823.455,0.000576487
821.527,0.000606952
819.598,0.000646456
817.67,0.000688713
815.741,0.000729177
813.813,0.000764682
811.885,0.000797008
809.956,0.000823826
808.028,0.000839471
806.099,0.000852887
804.171,0.000880597
802.242,0.000925061
800.314,0.000969862
798.385,0.000999226
796.457,0.001015689
794.528,0.001030443
792.6,0.001042668
790.671,0.001036102
788.743,0.001009739
786.814,0.000987958
784.886,0.000983205
782.958,0.000984073
781.029,0.000980314
779.101,0.000972933
777.172,0.000963812
775.244,0.000953755
773.315,0.000948629
771.387,0.000955896
769.458,0.000982847
767.53,0.001029875
765.601,0.001083223
763.673,0.001128766
761.744,0.001161422
759.816,0.001171223
757.887,0.001135475
755.959,0.001054056
754.031,0.000972834
752.102,0.000931323
750.174,0.000923661
748.245,0.000930203
746.317,0.000947442
744.388,0.000978239
742.46,0.001010311
740.531,0.001025391
738.603,0.001027756
736.674,0.001037513
734.746,0.001060059
732.817,0.001084075
730.889,0.001090509
728.96,0.001066973
727.032,0.00103264
725.104,0.001013924
723.175,0.001004801
721.247,0.000985008
719.318,0.000962695
717.39,0.000957839
715.461,0.000960021
713.533,0.00095124
711.604,0.000925858
709.676,0.000899655
707.747,0.000917951
705.819,0.000996211
703.89,0.001097026
701.962,0.001179187
700.033,0.001243625
698.105,0.00130796
696.177,0.001356512
694.248,0.001382815
692.32,0.001403777
690.391,0.001408892
688.463,0.001359918
686.534,0.001233096
684.606,0.001081696
682.677,0.000996722
680.749,0.000993924
678.82,0.001064383
676.892,0.001290549
674.963,0.001719142
673.035,0.002222518
671.106,0.002606685
669.178,0.002718398
667.25,0.002575659
665.321,0.00239815
663.393,0.002311777
661.464,0.002181616
659.536,0.00191467
657.607,0.00157875
655.679,0.001257222
653.75,0.00104223
651.822,0.000943193
649.893,0.000829832
647.965,0.000627851
646.036,0.000371941
644.108,8.46E-06
642.179,-0.000614332
640.251,-0.001537439
638.323,-0.002645077
636.394,-0.00354765
634.466,-0.003811351
632.537,-0.003421542
630.609,-0.002519978
628.68,-0.001162685
626.752,0.00050007
624.823,0.002109127
622.895,0.003218778
620.966,0.003566713
619.038,0.003049988
617.109,0.001960488
615.181,0.000954431
613.252,0.0002384
611.324,-0.000261119
609.396,-0.000353945
607.467,8.69E-05
605.539,0.000904792
603.61,0.001504263
601.682,0.001193231
599.753,0.000156014
597.825,-0.000567551
595.896,-0.000361557
593.968,0.000509633
592.039,0.001993757
590.111,0.004187097
588.182,0.006585349
586.254,0.008435374
584.325,0.008780209
582.397,0.007402979
580.469,0.005624537
578.54,0.004668296
576.612,0.004716639
574.683,0.005580308
572.755,0.006808885
570.826,0.007923991
568.898,0.009296358
566.969,0.01103772
565.041,0.01180637
563.112,0.01129111
561.184,0.01114892
559.255,0.0120548
557.327,0.01289352
555.398,0.01270911
553.47,0.01159477
551.542,0.01057305
549.613,0.01048629
547.685,0.0105587
545.756,0.009584261
543.828,0.008345088
541.899,0.008339791
539.971,0.008711972
538.042,0.007863829
536.114,0.006378592
534.185,0.005552975
532.257,0.005855603
530.328,0.007080874
528.4,0.008575111
526.471,0.01008335
524.543,0.01176536
522.615,0.01317291
520.686,0.01336113
518.758,0.01240434
516.829,0.01130057
514.901,0.01058123
512.972,0.01048389
511.044,0.01101982
509.115,0.01167492
507.187,0.01211036
505.258,0.0124875
503.33,0.01334308
501.401,0.01504742
499.473,0.01727602
497.544,0.01929228
495.616,0.02055093
493.688,0.02087615
491.759,0.02004997
489.831,0.0181123
487.902,0.01567005
485.974,0.01341925
484.045,0.01193628
482.117,0.01139322
480.188,0.01158488
478.26,0.0122062
476.331,0.01295739
474.403,0.01363715
472.474,0.0140117
470.546,0.01424053
468.617,0.014874
466.689,0.01582607
464.76,0.01631433
462.832,0.01588762
460.904,0.01475402
458.975,0.0130745
457.047,0.01097495
455.118,0.00892513
453.19,0.007256016
451.261,0.005993931
449.333,0.005239158
447.404,0.00494477
445.476,0.004572851
443.547,0.003800404
441.619,0.003327247
439.69,0.004312264
437.762,0.007046354
435.833,0.01056033
433.905,0.01342424
431.977,0.01458088
430.048,0.01380985
428.12,0.01154552
426.191,0.008561052
424.263,0.00602953
422.334,0.004774303
420.406,0.004740461
418.477,0.005659393
416.549,0.007254518
414.62,0.008971813
412.692,0.01010364
410.763,0.01028626
408.835,0.009684827
406.906,0.009354632
404.978,0.009126104
403.05,0.008361894
401.121,0.006864002
399.193,0.006007162
