Wavenumbers [1/cm],Absorbance
3997.712,-0.000207808
3995.783,-0.000228617
3993.855,-0.000228939
3991.926,-0.000218894
3989.998,-0.000216478
3988.069,-0.000219193
3986.141,-0.000213309
3984.212,-0.000200745
3982.284,-0.000194674
3980.355,-0.000200168
3978.427,-0.000214018
3976.499,-0.000227988
3974.57,-0.000234503
3972.642,-0.000233536
3970.713,-0.000232051
3968.785,-0.000232967
3966.856,-0.000235845
3964.928,-0.00023892
3962.999,-0.000236046
3961.071,-0.000229279
3959.142,-0.000222243
3957.214,-0.000205858
3955.285,-0.000188792
3953.357,-0.000193935
3951.428,-0.000210862
3949.5,-0.000219343
3947.572,-0.0002234
3945.643,-0.000221672
3943.715,-0.000213996
3941.786,-0.000211297
3939.858,-0.000213464
3937.929,-0.00021328
3936.001,-0.000205659
3934.072,-0.000195097
3932.144,-0.000197116
3930.215,-0.000213901
3928.287,-0.000224577
3926.358,-0.00021672
3924.43,-0.000205718
3922.501,-0.000204402
3920.573,-0.000207508
3918.645,-0.000210831
3916.716,-0.000216818
3914.788,-0.000224081
3912.859,-0.000226958
3910.931,-0.000226247
3909.002,-0.000231546
3907.074,-0.000242619
3905.145,-0.000245936
3903.217,-0.000240316
3901.288,-0.000228592
3899.36,-0.000209973
3897.431,-0.000199093
3895.503,-0.000207928
3893.574,-0.000226472
3891.646,-0.000229502
3889.718,-0.000214497
3887.789,-0.000219183
3885.861,-0.000248158
3883.932,-0.000259798
3882.004,-0.000246588
3880.075,-0.000228715
3878.147,-0.00021764
3876.218,-0.000222268
3874.29,-0.000237143
3872.361,-0.000255379
3870.433,-0.000272835
3868.504,-0.000271064
3866.576,-0.000255861
3864.647,-0.000248015
3862.719,-0.000242958
3860.791,-0.000234552
3858.862,-0.000232974
3856.934,-0.000254957
3855.005,-0.000294037
3853.077,-0.000310522
3851.148,-0.000277383
3849.22,-0.000216228
3847.291,-0.000179313
3845.363,-0.000186868
3843.434,-0.000213074
3841.506,-0.000238471
3839.577,-0.000263726
3837.649,-0.000280229
3835.72,-0.000281011
3833.792,-0.000276681
3831.864,-0.000271324
3829.935,-0.000261848
3828.007,-0.000252422
3826.078,-0.000239301
3824.15,-0.00022599
3822.221,-0.000225976
3820.293,-0.000233385
3818.364,-0.000245388
3816.436,-0.000256811
3814.507,-0.000242965
3812.579,-0.000217556
3810.65,-0.000214352
3808.722,-0.000223549
3806.793,-0.000227271
3804.865,-0.000238728
3802.937,-0.000266144
3801.008,-0.00028242
3799.08,-0.000278836
3797.151,-0.00027703
3795.223,-0.000272573
3793.294,-0.00025918
3791.366,-0.000249647
3789.437,-0.000244428
3787.509,-0.000242003
3785.58,-0.000244973
3783.652,-0.000248226
3781.723,-0.000257333
3779.795,-0.000275387
3777.866,-0.000284243
3775.938,-0.000283641
3774.01,-0.000281653
3772.081,-0.000264085
3770.153,-0.000239193
3768.224,-0.000241784
3766.296,-0.00026632
3764.367,-0.000271265
3762.439,-0.000257482
3760.51,-0.000255959
3758.582,-0.000258315
3756.653,-0.000249105
3754.725,-0.00025255
3752.796,-0.000280338
3750.868,-0.000295503
3748.939,-0.000275606
3747.011,-0.00025146
3745.083,-0.000244568
3743.154,-0.00023198
3741.226,-0.000206888
3739.297,-0.000194651
3737.369,-0.000198814
3735.44,-0.000193759
3733.512,-0.000170729
3731.583,-0.00015406
3729.655,-0.000148968
3727.726,-0.000138033
3725.798,-0.000126799
3723.869,-0.000131707
3721.941,-0.000165595
3720.012,-0.000219048
3718.084,-0.00025857
3716.156,-0.000271982
3714.227,-0.000266989
3712.299,-0.00026288
3710.37,-0.000274388
3708.442,-0.000273424
3706.513,-0.00023398
3704.585,-0.000198351
3702.656,-0.000215121
3700.728,-0.000262247
3698.799,-0.000294477
3696.871,-0.000295735
3694.942,-0.00028553
3693.014,-0.000312773
3691.085,-0.00038062
3689.157,-0.000429207
3687.229,-0.000437074
3685.3,-0.000433316
3683.372,-0.00043455
3681.443,-0.000450005
3679.515,-0.000493763
3677.586,-0.000554726
3675.658,-0.000595728
3673.729,-0.000608303
3671.801,-0.000616183
3669.872,-0.000618979
3667.944,-0.000608012
3666.015,-0.000589067
3664.087,-0.000582837
3662.158,-0.000621346
3660.23,-0.000677922
3658.302,-0.000688782
3656.373,-0.000664105
3654.445,-0.000660651
3652.516,-0.000686462
3650.588,-0.000720476
3648.659,-0.000740381
3646.731,-0.000731186
3644.802,-0.000737634
3642.874,-0.000784127
3640.945,-0.00080109
3639.017,-0.000779762
3637.088,-0.000775622
3635.16,-0.000751808
3633.231,-0.000701518
3631.303,-0.000709498
3629.375,-0.000740135
3627.446,-0.000698547
3625.518,-0.000633846
3623.589,-0.000632864
3621.661,-0.000680953
3619.732,-0.000719732
3617.804,-0.000716779
3615.875,-0.000687317
3613.947,-0.000683707
3612.018,-0.000709427
3610.09,-0.000708594
3608.161,-0.000659039
3606.233,-0.00060749
3604.304,-0.000607271
3602.376,-0.000636818
3600.448,-0.000640711
3598.519,-0.000615748
3596.591,-0.000603387
3594.662,-0.00063152
3592.734,-0.000673998
3590.805,-0.000697443
3588.877,-0.000698927
3586.948,-0.00066653
3585.02,-0.000615138
3583.091,-0.000609166
3581.163,-0.000655516
3579.234,-0.000700838
3577.306,-0.000719901
3575.377,-0.000706823
3573.449,-0.00068998
3571.521,-0.000701997
3569.592,-0.000707609
3567.664,-0.000685364
3565.735,-0.000661132
3563.807,-0.000644656
3561.878,-0.000641059
3559.95,-0.000639608
3558.021,-0.000619993
3556.093,-0.000609195
3554.164,-0.000615404
3552.236,-0.000611422
3550.307,-0.000616882
3548.379,-0.00064934
3546.45,-0.000676132
3544.522,-0.00066235
3542.594,-0.000625002
3540.665,-0.000619522
3538.737,-0.000650367
3536.808,-0.000670271
3534.88,-0.000669933
3532.951,-0.000665239
3531.023,-0.000636427
3529.094,-0.000590235
3527.166,-0.000574678
3525.237,-0.000611085
3523.309,-0.000704375
3521.38,-0.000797712
3519.452,-0.000822789
3517.523,-0.000829655
3515.595,-0.000861476
3513.667,-0.000848909
3511.738,-0.000778222
3509.81,-0.000737492
3507.881,-0.000764283
3505.953,-0.000839387
3504.024,-0.000933287
3502.096,-0.001017675
3500.167,-0.001055455
3498.239,-0.001014448
3496.31,-0.0009525
3494.382,-0.00092404
3492.453,-0.000952514
3490.525,-0.001029385
3488.596,-0.001044268
3486.668,-0.001007306
3484.74,-0.001039729
3482.811,-0.001096659
3480.883,-0.001074597
3478.954,-0.001017292
3477.026,-0.001042012
3475.097,-0.001165263
3473.169,-0.001310165
3471.24,-0.001406117
3469.312,-0.001416747
3467.383,-0.001354551
3465.455,-0.001289606
3463.526,-0.001307894
3461.598,-0.001415254
3459.669,-0.001503536
3457.741,-0.001519026
3455.813,-0.001522138
3453.884,-0.001505664
3451.956,-0.001449403
3450.027,-0.001418315
3448.099,-0.001447483
3446.17,-0.00151838
3444.242,-0.001585235
3442.313,-0.001616247
3440.385,-0.001593751
3438.456,-0.001564852
3436.528,-0.00165452
3434.599,-0.001826114
3432.671,-0.001943457
3430.742,-0.001988237
3428.814,-0.001993338
3426.885,-0.002000695
3424.957,-0.002087839
3423.029,-0.002275395
3421.1,-0.002396459
3419.172,-0.002317075
3417.243,-0.002183669
3415.315,-0.002135675
3413.386,-0.002136609
3411.458,-0.002223316
3409.529,-0.00241433
3407.601,-0.00258368
3405.672,-0.002730171
3403.744,-0.002879277
3401.815,-0.002949639
3399.887,-0.00298675
3397.958,-0.002988768
3396.03,-0.002861087
3394.102,-0.002724958
3392.173,-0.002740366
3390.245,-0.002870624
3388.316,-0.002996253
3386.388,-0.003068558
3384.459,-0.003146664
3382.531,-0.003263918
3380.602,-0.003380571
3378.674,-0.003406343
3376.745,-0.003249168
3374.817,-0.003028835
3372.888,-0.00299068
3370.96,-0.003203243
3369.031,-0.003502124
3367.103,-0.003639332
3365.175,-0.003541269
3363.246,-0.003387479
3361.318,-0.003406721
3359.389,-0.003568724
3357.461,-0.003646123
3355.532,-0.003612732
3353.604,-0.003587776
3351.675,-0.003630942
3349.747,-0.00373385
3347.818,-0.003812385
3345.89,-0.003830162
3343.961,-0.003824416
3342.033,-0.003816683
3340.104,-0.003760016
3338.176,-0.003591275
3336.248,-0.003436309
3334.319,-0.003482996
3332.391,-0.003649332
3330.462,-0.003725532
3328.534,-0.003686964
3326.605,-0.003657567
3324.677,-0.003716315
3322.748,-0.003836879
3320.82,-0.003967993
3318.891,-0.004039375
3316.963,-0.004002372
3315.034,-0.003954064
3313.106,-0.003977448
3311.177,-0.003989194
3309.249,-0.003946453
3307.321,-0.003949792
3305.392,-0.003965306
3303.464,-0.003836655
3301.535,-0.003723415
3299.607,-0.003843892
3297.678,-0.004053199
3295.75,-0.004182841
3293.821,-0.004241094
3291.893,-0.004297095
3289.964,-0.004356279
3288.036,-0.004336732
3286.107,-0.004201618
3284.179,-0.003937199
3282.25,-0.003636964
3280.322,-0.003538643
3278.394,-0.00362534
3276.465,-0.003631639
3274.537,-0.003558705
3272.608,-0.003587903
3270.68,-0.003702798
3268.751,-0.003767746
3266.823,-0.00371613
3264.894,-0.00370994
3262.966,-0.003882178
3261.037,-0.004052296
3259.109,-0.004083071
3257.18,-0.004023443
3255.252,-0.003953773
3253.323,-0.003962749
3251.395,-0.004070229
3249.467,-0.004219115
3247.538,-0.004355808
3245.61,-0.004444201
3243.681,-0.004461084
3241.753,-0.004418023
3239.824,-0.004381965
3237.896,-0.004376153
3235.967,-0.004338409
3234.039,-0.004308397
3232.11,-0.004357751
3230.182,-0.004414227
3228.253,-0.004445726
3226.325,-0.004419283
3224.396,-0.00430462
3222.468,-0.004261867
3220.54,-0.004413
3218.611,-0.004636747
3216.683,-0.004673478
3214.754,-0.004458888
3212.826,-0.004317643
3210.897,-0.004464625
3208.969,-0.004626834
3207.04,-0.004570433
3205.112,-0.004471296
3203.183,-0.004461515
3201.255,-0.004465952
3199.326,-0.004491567
3197.398,-0.004522073
3195.469,-0.004415567
3193.541,-0.004222504
3191.613,-0.004206165
3189.684,-0.0043567
3187.756,-0.00440858
3185.827,-0.004327913
3183.899,-0.004279943
3181.97,-0.004327294
3180.042,-0.004355286
3178.113,-0.004250719
3176.185,-0.004175495
3174.256,-0.004269623
3172.328,-0.004295942
3170.399,-0.00414195
3168.471,-0.004031547
3166.542,-0.004026364
3164.614,-0.004019716
3162.686,-0.003989531
3160.757,-0.003951357
3158.829,-0.003917111
3156.9,-0.003904143
3154.972,-0.003911666
3153.043,-0.00389276
3151.115,-0.003850357
3149.186,-0.003862059
3147.258,-0.0039271
3145.329,-0.003980193
3143.401,-0.003966491
3141.472,-0.003855498
3139.544,-0.00370601
3137.615,-0.003605489
3135.687,-0.003559189
3133.759,-0.003511881
3131.83,-0.003453524
3129.902,-0.003437883
3127.973,-0.003445425
3126.045,-0.003396413
3124.116,-0.003288304
3122.188,-0.003190116
3120.259,-0.003140363
3118.331,-0.003102487
3116.402,-0.003058974
3114.474,-0.003011892
3112.545,-0.002946718
3110.617,-0.002886851
3108.688,-0.002843975
3106.76,-0.002803613
3104.832,-0.002759643
3102.903,-0.002682954
3100.975,-0.002579948
3099.046,-0.002508835
3097.118,-0.002448849
3095.189,-0.00234734
3093.261,-0.002246769
3091.332,-0.002177275
3089.404,-0.002104849
3087.475,-0.002018357
3085.547,-0.00193774
3083.618,-0.00188362
3081.69,-0.001842986
3079.761,-0.001796126
3077.833,-0.001742767
3075.905,-0.001678597
3073.976,-0.001616445
3072.048,-0.00156759
3070.119,-0.001521944
3068.191,-0.001474846
3066.262,-0.001416434
3064.334,-0.001345979
3062.405,-0.001286666
3060.477,-0.00123075
3058.548,-0.001170327
3056.62,-0.001138911
3054.691,-0.001139318
3052.763,-0.001137445
3050.834,-0.001122317
3048.906,-0.001108486
3046.978,-0.001090534
3045.049,-0.001035372
3043.121,-0.000966663
3041.192,-0.000957502
3039.264,-0.000992551
3037.335,-0.000987953
3035.407,-0.00094828
3033.478,-0.000935014
3031.55,-0.000935682
3029.621,-0.000901902
3027.693,-0.000842092
3025.764,-0.000800435
3023.836,-0.000789502
3021.907,-0.000786774
3019.979,-0.0007642
3018.051,-0.000713827
3016.122,-0.000659082
3014.194,-0.000610316
3012.265,-0.000555447
3010.337,-0.000504587
3008.408,-0.000485618
3006.48,-0.000500586
3004.551,-0.000508488
3002.623,-0.000476192
3000.694,-0.000425791
2998.766,-0.000402567
2996.837,-0.000405199
2994.909,-0.000383228
2992.98,-0.000324913
2991.052,-0.000269376
2989.124,-0.000221046
2987.195,-0.000155051
2985.267,-8.12E-05
2983.338,-1.71E-05
2981.41,6.59E-05
2979.481,0.00018461
2977.553,0.000288288
2975.624,0.0003516
2973.696,0.000424152
2971.767,0.000537406
2969.839,0.00067204
2967.91,0.000806715
2965.982,0.000946476
2964.053,0.001096867
2962.125,0.001229054
2960.197,0.001326775
2958.268,0.001404573
2956.34,0.001459252
2954.411,0.001481392
2952.483,0.001473949
2950.554,0.001439521
2948.626,0.001391704
2946.697,0.001367908
2944.769,0.001394931
2942.84,0.001467106
2940.912,0.001583289
2938.983,0.001752386
2937.055,0.001958477
2935.126,0.002161249
2933.198,0.002341758
2931.27,0.002517746
2929.341,0.002699729
2927.413,0.002866461
2925.484,0.002984762
2923.556,0.003017283
2921.627,0.002941426
2919.699,0.00277976
2917.77,0.002570335
2915.842,0.002339806
2913.913,0.002109555
2911.985,0.001893435
2910.056,0.00171409
2908.128,0.001575885
2906.199,0.001445935
2904.271,0.001325997
2902.343,0.001253492
2900.414,0.001218557
2898.486,0.001177993
2896.557,0.00112738
2894.629,0.001089947
2892.7,0.00106294
2890.772,0.00103132
2888.843,0.000999263
2886.915,0.000971057
2884.986,0.000937744
2883.058,0.00089744
2881.129,0.00086257
2879.201,0.000850506
2877.272,0.000868351
2875.344,0.000903107
2873.416,0.000938909
2871.487,0.000959555
2869.559,0.000945541
2867.63,0.000906379
2865.702,0.000884195
2863.773,0.000918515
2861.845,0.001015963
2859.916,0.001146941
2857.988,0.00129459
2856.059,0.001460826
2854.131,0.001596375
2852.202,0.001623999
2850.274,0.001530251
2848.345,0.001357736
2846.417,0.001141463
2844.489,0.000917787
2842.56,0.000732568
2840.632,0.000599287
2838.703,0.00050596
2836.775,0.000449683
2834.846,0.000414502
2832.918,0.000373431
2830.989,0.000334929
2829.061,0.000318
2827.132,0.000303508
2825.204,0.000276534
2823.275,0.000252882
2821.347,0.000240726
2819.418,0.000232941
2817.49,0.00022651
2815.562,0.000220338
2813.633,0.000211408
2811.705,0.000202233
2809.776,0.000196589
2807.848,0.000190314
2805.919,0.000178081
2803.991,0.000165708
2802.062,0.000158266
2800.134,0.000154367
2798.205,0.000159742
2796.277,0.000165831
2794.348,0.000154775
2792.42,0.000137924
2790.491,0.000129037
2788.563,0.000121153
2786.635,0.000114046
2784.706,0.000113985
2782.778,0.000111282
2780.849,9.71E-05
2778.921,8.16E-05
2776.992,7.14E-05
2775.064,6.57E-05
2773.135,6.88E-05
2771.207,7.92E-05
2769.278,8.55E-05
2767.35,8.20E-05
2765.421,7.49E-05
2763.493,7.21E-05
2761.564,7.11E-05
2759.636,6.11E-05
2757.708,4.54E-05
2755.779,3.81E-05
2753.851,4.31E-05
2751.922,5.47E-05
2749.994,6.16E-05
2748.065,5.89E-05
2746.137,5.21E-05
2744.208,5.07E-05
2742.28,6.17E-05
2740.351,7.12E-05
2738.423,6.23E-05
2736.494,4.56E-05
2734.566,3.53E-05
2732.637,2.58E-05
2730.709,1.18E-05
2728.781,7.60E-07
2726.852,-1.18E-06
2724.924,1.51E-07
2722.995,-4.38E-06
2721.067,-5.42E-06
2719.138,7.48E-06
2717.21,1.95E-05
2715.281,1.91E-05
2713.353,1.06E-05
2711.424,5.96E-07
2709.496,-4.50E-06
2707.567,-3.64E-06
2705.639,-3.26E-06
2703.71,-1.27E-05
2701.782,-2.69E-05
2699.854,-3.26E-05
2697.925,-3.36E-05
2695.997,-3.84E-05
2694.068,-4.36E-05
2692.14,-4.29E-05
2690.211,-3.17E-05
2688.283,-1.77E-05
2686.354,-1.95E-05
2684.426,-3.55E-05
2682.497,-4.60E-05
2680.569,-4.54E-05
2678.64,-4.73E-05
2676.712,-5.26E-05
2674.783,-4.72E-05
2672.855,-3.08E-05
2670.927,-2.08E-05
2668.998,-3.10E-05
2667.07,-4.69E-05
2665.141,-4.47E-05
2663.213,-3.09E-05
2661.284,-2.66E-05
2659.356,-3.84E-05
2657.427,-5.22E-05
2655.499,-5.46E-05
2653.57,-5.83E-05
2651.642,-7.10E-05
2649.713,-8.30E-05
2647.785,-8.62E-05
2645.856,-7.99E-05
2643.928,-7.87E-05
2642,-8.52E-05
2640.071,-8.52E-05
2638.143,-7.96E-05
2636.214,-7.30E-05
2634.286,-6.46E-05
2632.357,-5.49E-05
2630.429,-4.70E-05
2628.5,-5.19E-05
2626.572,-6.79E-05
2624.643,-7.84E-05
2622.715,-8.85E-05
2620.786,-0.000103585
2618.858,-0.000112212
2616.929,-0.000113388
2615.001,-0.000102748
2613.073,-8.17E-05
2611.144,-8.20E-05
2609.216,-0.000114737
2607.287,-0.000140303
2605.359,-0.000133315
2603.43,-0.000129314
2601.502,-0.00016139
2599.573,-0.000202456
2597.645,-0.000209084
2595.716,-0.000176907
2593.788,-0.000139095
2591.859,-0.000118708
2589.931,-0.000110758
2588.002,-9.83E-05
2586.074,-7.56E-05
2584.146,-6.22E-05
2582.217,-6.45E-05
2580.289,-7.52E-05
2578.36,-0.000113314
2576.432,-0.000174167
2574.503,-0.000198398
2572.575,-0.000165299
2570.646,-0.000132134
2568.718,-0.000152545
2566.789,-0.000215506
2564.861,-0.000276281
2562.932,-0.000286973
2561.004,-0.000232628
2559.075,-0.000175682
2557.147,-0.000173941
2555.219,-0.000211202
2553.29,-0.000241888
2551.362,-0.000224787
2549.433,-0.000184625
2547.505,-0.000179195
2545.576,-0.000190607
2543.648,-0.000181094
2541.719,-0.000164566
2539.791,-0.000168716
2537.862,-0.000191048
2535.934,-0.00020848
2534.005,-0.000221497
2532.077,-0.000227608
2530.148,-0.000205493
2528.22,-0.000174983
2526.292,-0.000149912
2524.363,-0.00011552
2522.435,-0.00011068
2520.506,-0.000155894
2518.578,-0.000200939
2516.649,-0.000231066
2514.721,-0.000271551
2512.792,-0.000299194
2510.864,-0.00025011
2508.935,-0.000159119
2507.007,-0.000144175
2505.078,-0.000198084
2503.15,-0.000228859
2501.221,-0.000243075
2499.293,-0.000291484
2497.365,-0.0003529
2495.436,-0.000361545
2493.508,-0.00030652
2491.579,-0.000240121
2489.651,-0.000185243
2487.722,-0.000128474
2485.794,-8.20E-05
2483.865,-0.000104504
2481.937,-0.000203825
2480.008,-0.000270598
2478.08,-0.000245203
2476.151,-0.0001862
2474.223,-0.000158654
2472.294,-0.000210495
2470.366,-0.000304801
2468.438,-0.000340046
2466.509,-0.000310416
2464.581,-0.000257977
2462.652,-0.000214574
2460.724,-0.000220926
2458.795,-0.000267318
2456.867,-0.000320761
2454.938,-0.000356272
2453.01,-0.000344702
2451.081,-0.000318988
2449.153,-0.000312323
2447.224,-0.000288439
2445.296,-0.000246688
2443.367,-0.000224436
2441.439,-0.000229193
2439.51,-0.000258604
2437.582,-0.00028471
2435.654,-0.000260875
2433.725,-0.000208427
2431.797,-0.000185906
2429.868,-0.000200693
2427.94,-0.000249876
2426.011,-0.000308437
2424.083,-0.000308365
2422.154,-0.000243041
2420.226,-0.000180907
2418.297,-0.000165765
2416.369,-0.000199425
2414.44,-0.000243964
2412.512,-0.0002498
2410.583,-0.000248322
2408.655,-0.000283124
2406.727,-0.000303939
2404.798,-0.000284003
2402.87,-0.000277531
2400.941,-0.000295916
2399.013,-0.000293971
2397.084,-0.000279181
2395.156,-0.000282449
2393.227,-0.00028457
2391.299,-0.000268712
2389.37,-0.000242784
2387.442,-0.000208154
2385.513,-0.000145723
2383.585,-2.50E-05
2381.656,0.00015941
2379.728,0.000391018
2377.8,0.000674984
2375.871,0.001036404
2373.943,0.001448751
2372.014,0.001847295
2370.086,0.002198918
2368.157,0.002496828
2366.229,0.002763565
2364.3,0.003001857
2362.372,0.003166557
2360.443,0.003243812
2358.515,0.003220461
2356.586,0.003038128
2354.658,0.002681488
2352.729,0.002178162
2350.801,0.001645325
2348.873,0.00139308
2346.944,0.001605452
2345.016,0.002031809
2343.087,0.0022868
2341.159,0.002343802
2339.23,0.00232778
2337.302,0.002260039
2335.373,0.002156966
2333.445,0.00207878
2331.516,0.002043266
2329.588,0.001984372
2327.659,0.001862555
2325.731,0.001723672
2323.802,0.001613802
2321.874,0.001508149
2319.946,0.001346993
2318.017,0.00113066
2316.089,0.000925505
2314.16,0.000775995
2312.232,0.000656448
2310.303,0.00052333
2308.375,0.000385144
2306.446,0.000274593
2304.518,0.000178242
2302.589,7.63E-05
2300.661,-6.67E-06
2298.732,-6.30E-05
2296.804,-0.000126874
2294.875,-0.000208656
2292.947,-0.000271837
2291.019,-0.000297168
2289.09,-0.000307981
2287.162,-0.000317776
2285.233,-0.000325192
2283.305,-0.000367626
2281.376,-0.000491816
2279.448,-0.000597131
2277.519,-0.00051518
2275.591,-0.000356293
2273.662,-0.000364614
2271.734,-0.000473019
2269.805,-0.000477698
2267.877,-0.000437816
2265.948,-0.00049331
2264.02,-0.000529292
2262.092,-0.000426571
2260.163,-0.000324129
2258.235,-0.000335966
2256.306,-0.000417628
2254.378,-0.000462668
2252.449,-0.000360469
2250.521,-0.000184636
2248.592,-0.00012333
2246.664,-0.000216933
2244.735,-0.000385352
2242.807,-0.000535909
2240.878,-0.000627921
2238.95,-0.000693825
2237.021,-0.000669751
2235.093,-0.000485587
2233.165,-0.000451784
2231.236,-0.000814558
2229.308,-0.0010785
2227.379,-0.000912264
2225.451,-0.000829826
2223.522,-0.001066081
2221.594,-0.001279946
2219.665,-0.001257444
2217.737,-0.001045872
2215.808,-0.0010254
2213.88,-0.001254678
2211.951,-0.001271351
2210.023,-0.001362782
2208.094,-0.001953626
2206.166,-0.002189454
2204.238,-0.001620601
2202.309,-0.00097502
2200.381,-0.000121174
2198.452,0.000959636
2196.524,0.000793794
2194.595,-0.000874112
2192.667,-0.002206843
2190.738,-0.002155729
2188.81,-0.001408197
2186.881,-0.0006647
2184.953,6.65E-06
2183.024,0.00054961
2181.096,0.000777535
2179.167,0.00034825
2177.239,-0.000912727
2175.311,-0.00209595
2173.382,-0.001976471
2171.454,-0.001163632
2169.525,-0.000821249
2167.597,-0.000446884
2165.668,0.0003743
2163.74,0.000484738
2161.811,-0.000430566
2159.883,-0.000531789
2157.954,0.000557799
2156.026,0.000886152
2154.097,0.000330485
2152.169,-0.000362238
2150.24,-0.000472853
2148.312,0.000236789
2146.384,0.000830405
2144.455,0.000801809
2142.527,0.000499979
2140.598,8.99E-05
2138.67,-0.000391487
2136.741,-0.000795872
2134.813,-0.00085814
2132.884,-0.000594637
2130.956,-0.000415298
2129.027,-0.000477366
2127.099,-0.000586044
2125.17,-0.000569278
2123.242,-0.000513755
2121.313,-0.000602464
2119.385,-0.000687159
2117.457,-0.000598986
2115.528,-0.000542027
2113.6,-0.000626813
2111.671,-0.000646679
2109.743,-0.000483661
2107.814,-0.000230847
2105.886,-0.000146932
2103.957,-0.000501311
2102.029,-0.00091183
2100.1,-0.000882776
2098.172,-0.000729153
2096.243,-0.000658495
2094.315,-0.00050078
2092.386,-0.000374707
2090.458,-0.000395061
2088.53,-0.000456094
2086.601,-0.000391661
2084.673,-0.000262212
2082.744,-0.000360312
2080.816,-0.000677598
2078.887,-0.000852908
2076.959,-0.000771433
2075.03,-0.00076278
2073.102,-0.0011615
2071.173,-0.001754242
2069.245,-0.001876245
2067.316,-0.00145312
2065.388,-0.001124977
2063.459,-0.001017751
2061.531,-0.000732704
2059.603,-0.000454344
2057.674,-0.000601005
2055.746,-0.000865939
2053.817,-0.000968901
2051.889,-0.001066058
2049.96,-0.001052306
2048.032,-0.000903612
2046.103,-0.001016312
2044.175,-0.001479257
2042.246,-0.001686859
2040.318,-0.001453648
2038.389,-0.001291768
2036.461,-0.001275093
2034.532,-0.001504851
2032.604,-0.001688377
2030.676,-0.001233999
2028.747,-0.000606397
2026.819,-0.000233245
2024.89,-0.000396971
2022.962,-0.001092702
2021.033,-0.00188793
2019.105,-0.002674346
2017.176,-0.00290694
2015.248,-0.002433269
2013.319,-0.002326007
2011.391,-0.002801653
2009.462,-0.002738761
2007.534,-0.001825409
2005.605,-0.00096371
2003.677,-0.000469574
2001.749,-4.38E-05
1999.82,5.67E-05
1997.892,-0.000367
1995.963,-0.000810665
1994.035,-0.000815736
1992.106,-0.000299699
1990.178,0.000423877
1988.249,0.000332364
1986.321,-0.000815897
1984.392,-0.001747558
1982.464,-0.001886621
1980.535,-0.001681577
1978.607,-0.001248496
1976.678,-0.001164666
1974.75,-0.001373849
1972.822,-0.000577385
1970.893,0.000240781
1968.965,0.000199645
1967.036,0.000609379
1965.108,0.001150993
1963.179,0.000603623
1961.251,-0.000529167
1959.322,-0.001360162
1957.394,-0.001611704
1955.465,-0.00151403
1953.537,-0.001348023
1951.608,-0.001014999
1949.68,-0.000669288
1947.751,-0.000641255
1945.823,-0.000712449
1943.895,-0.000671133
1941.966,-0.000602702
1940.038,-0.000536507
1938.109,-0.000571041
1936.181,-0.000750273
1934.252,-0.000868113
1932.324,-0.000738801
1930.395,-0.000515686
1928.467,-0.000423873
1926.538,-0.000454164
1924.61,-0.000541332
1922.681,-0.000605426
1920.753,-0.000541689
1918.824,-0.000352303
1916.896,-0.000285829
1914.968,-0.00052685
1913.039,-0.000760438
1911.111,-0.000734214
1909.182,-0.000617717
1907.254,-0.00050137
1905.325,-0.000373604
1903.397,-0.00031795
1901.468,-0.000324713
1899.54,-0.000301637
1897.611,-0.000254681
1895.683,-0.000204487
1893.754,-0.000160862
1891.826,-0.000194882
1889.897,-0.000285716
1887.969,-0.000350872
1886.041,-0.000380228
1884.112,-0.000352013
1882.184,-0.000301968
1880.255,-0.000313126
1878.327,-0.000319708
1876.398,-0.000279003
1874.47,-0.000273351
1872.541,-0.00029391
1870.613,-0.000300578
1868.684,-0.000312305
1866.756,-0.000321046
1864.827,-0.000331783
1862.899,-0.000357787
1860.97,-0.000370229
1859.042,-0.000370212
1857.114,-0.000400024
1855.185,-0.000453544
1853.257,-0.000480744
1851.328,-0.000464603
1849.4,-0.000432403
1847.471,-0.000424156
1845.543,-0.000440766
1843.614,-0.000430505
1841.686,-0.000368037
1839.757,-0.000307022
1837.829,-0.000308635
1835.9,-0.000344935
1833.972,-0.000351392
1832.043,-0.000331931
1830.115,-0.000311587
1828.187,-0.000281916
1826.258,-0.000265673
1824.33,-0.000297149
1822.401,-0.000347022
1820.473,-0.000374214
1818.544,-0.000379146
1816.616,-0.000376172
1814.687,-0.000365591
1812.759,-0.000348579
1810.83,-0.000341301
1808.902,-0.000352945
1806.973,-0.000374127
1805.045,-0.000388832
1803.116,-0.000384134
1801.188,-0.000365558
1799.26,-0.000350009
1797.331,-0.000336628
1795.403,-0.000320635
1793.474,-0.000312557
1791.546,-0.000306832
1789.617,-0.000306688
1787.689,-0.000341312
1785.76,-0.000390329
1783.832,-0.000407078
1781.903,-0.000403211
1779.975,-0.000405563
1778.046,-0.000410703
1776.118,-0.000410339
1774.189,-0.000398709
1772.261,-0.000377226
1770.333,-0.000364361
1768.404,-0.000371503
1766.476,-0.000381216
1764.547,-0.000372504
1762.619,-0.000350361
1760.69,-0.000327074
1758.762,-0.000300723
1756.833,-0.000257876
1754.905,-0.000195862
1752.976,-0.000139826
1751.048,-0.000104837
1749.119,-7.61E-05
1747.191,-4.21E-05
1745.262,-5.64E-06
1743.334,2.47E-05
1741.406,4.17E-05
1739.477,4.91E-05
1737.549,5.98E-05
1735.62,8.26E-05
1733.692,0.000120884
1731.763,0.000167443
1729.835,0.000192351
1727.906,0.000177953
1725.978,0.000138661
1724.049,9.53E-05
1722.121,5.25E-05
1720.192,5.94E-06
1718.264,-4.36E-05
1716.335,-9.67E-05
1714.407,-0.000143088
1712.479,-0.000161739
1710.55,-0.000165221
1708.622,-0.000179203
1706.693,-0.000184851
1704.765,-0.000151146
1702.836,-8.59E-05
1700.908,4.39E-06
1698.979,0.00014321
1697.051,0.000346038
1695.122,0.000607511
1693.194,0.000923422
1691.265,0.00130256
1689.337,0.001742312
1687.408,0.002224836
1685.48,0.002751964
1683.552,0.003336672
1681.623,0.003963383
1679.695,0.004590399
1677.766,0.005191525
1675.838,0.005766261
1673.909,0.006307435
1671.981,0.006793507
1670.052,0.007217692
1668.124,0.007600533
1666.195,0.007943103
1664.267,0.008213685
1662.338,0.008424195
1660.41,0.008612583
1658.481,0.008763373
1656.553,0.008846013
1654.625,0.008864053
1652.696,0.008844311
1650.768,0.008809375
1648.839,0.008744151
1646.911,0.008638667
1644.982,0.008498605
1643.054,0.008317098
1641.125,0.00810722
1639.197,0.007877815
1637.268,0.007634859
1635.34,0.007409716
1633.411,0.007206633
1631.483,0.007021658
1629.554,0.006869033
1627.626,0.00672497
1625.698,0.006554496
1623.769,0.006383781
1621.841,0.006253585
1619.912,0.006143957
1617.984,0.006023044
1616.055,0.005892046
1614.127,0.005737166
1612.198,0.00554159
1610.27,0.005316653
1608.341,0.005070233
1606.413,0.004804968
1604.484,0.004529462
1602.556,0.00425475
1600.627,0.003990002
1598.699,0.003729464
1596.771,0.003477721
1594.842,0.003253681
1592.914,0.003053841
1590.985,0.002872413
1589.057,0.002732079
1587.128,0.002648184
1585.2,0.002609767
1583.271,0.002610372
1581.343,0.002651655
1579.414,0.002722426
1577.486,0.002819557
1575.557,0.002972825
1573.629,0.003192206
1571.7,0.003439989
1569.772,0.00370088
1567.844,0.003987441
1565.915,0.004305258
1563.987,0.004651616
1562.058,0.00499912
1560.13,0.005347848
1558.201,0.005741252
1556.273,0.006165154
1554.344,0.006565976
1552.416,0.006917969
1550.487,0.007201363
1548.559,0.007402197
1546.63,0.007518496
1544.702,0.007548497
1542.773,0.007501628
1540.845,0.007400062
1538.917,0.007270824
1536.988,0.007121322
1535.06,0.006936617
1533.131,0.006719308
1531.203,0.006481844
1529.274,0.006215019
1527.346,0.005923227
1525.417,0.005644885
1523.489,0.005402313
1521.56,0.005200836
1519.632,0.005033887
1517.703,0.004837956
1515.775,0.004553298
1513.846,0.004202479
1511.918,0.003839641
1509.99,0.003483428
1508.061,0.003135992
1506.133,0.002833006
1504.204,0.002602092
1502.276,0.002413411
1500.347,0.002241639
1498.419,0.002091176
1496.49,0.001967108
1494.562,0.001873011
1492.633,0.001802587
1490.705,0.00174013
1488.776,0.001680466
1486.848,0.001638694
1484.919,0.001636743
1482.991,0.001680228
1481.063,0.001756822
1479.134,0.001855211
1477.206,0.001970355
1475.277,0.002105567
1473.349,0.002290292
1471.42,0.00256002
1469.492,0.002880217
1467.563,0.003157834
1465.635,0.003362644
1463.706,0.003543693
1461.778,0.003728989
1459.849,0.003911828
1457.921,0.004092839
1455.992,0.004254614
1454.064,0.004347784
1452.135,0.004348002
1450.207,0.004285593
1448.279,0.004202773
1446.35,0.004118214
1444.422,0.004031124
1442.493,0.003939938
1440.565,0.003840373
1438.636,0.003721506
1436.708,0.00359695
1434.779,0.003496801
1432.851,0.003423773
1430.922,0.00336933
1428.994,0.003344721
1427.065,0.003356808
1425.137,0.003389733
1423.208,0.003422056
1421.28,0.003433051
1419.352,0.003412102
1417.423,0.003366525
1415.495,0.003300059
1413.566,0.003213507
1411.638,0.003122366
1409.709,0.003047111
1407.781,0.002983606
1405.852,0.00291796
1403.924,0.002858286
1401.995,0.002810062
1400.067,0.002760414
1398.138,0.002702413
1396.21,0.002642445
1394.281,0.002590343
1392.353,0.002549961
1390.425,0.002513137
1388.496,0.002470577
1386.568,0.002425905
1384.639,0.002377816
1382.711,0.002315817
1380.782,0.002250564
1378.854,0.002200541
1376.925,0.002160758
1374.997,0.00211834
1373.068,0.002082486
1371.14,0.002069238
1369.211,0.002067335
1367.283,0.002054852
1365.354,0.002036917
1363.426,0.002029774
1361.498,0.00202791
1359.569,0.00202162
1357.641,0.002015836
1355.712,0.002019414
1353.784,0.002032841
1351.855,0.002042632
1349.927,0.002039087
1347.998,0.00203181
1346.07,0.00203249
1344.141,0.0020358
1342.213,0.002028631
1340.284,0.002010256
1338.356,0.001989655
1336.427,0.001980866
1334.499,0.001991837
1332.571,0.00200906
1330.642,0.002022349
1328.714,0.002042695
1326.785,0.002078727
1324.857,0.002121359
1322.928,0.00215535
1321,0.002175785
1319.071,0.002181837
1317.143,0.0021732
1315.214,0.002160526
1313.286,0.00215245
1311.357,0.002142858
1309.429,0.002135319
1307.5,0.002142542
1305.572,0.00215568
1303.644,0.002163106
1301.715,0.002171154
1299.787,0.002183403
1297.858,0.00219768
1295.93,0.002215884
1294.001,0.002238153
1292.073,0.00225714
1290.144,0.002272139
1288.216,0.002290686
1286.287,0.002306524
1284.359,0.002309067
1282.43,0.002305757
1280.502,0.002311289
1278.573,0.002325883
1276.645,0.002338678
1274.717,0.002350371
1272.788,0.00237239
1270.86,0.002409812
1268.931,0.0024586
1267.003,0.002511055
1265.074,0.00256344
1263.146,0.002621968
1261.217,0.00268875
1259.289,0.002756082
1257.36,0.002821333
1255.432,0.002888223
1253.503,0.002963562
1251.575,0.003048996
1249.646,0.003131917
1247.718,0.003198084
1245.79,0.003242783
1243.861,0.003267504
1241.933,0.00327353
1240.004,0.003259883
1238.076,0.003228538
1236.147,0.003181687
1234.219,0.003120078
1232.29,0.003051852
1230.362,0.002985293
1228.433,0.002919685
1226.505,0.002863913
1224.576,0.002830738
1222.648,0.002813619
1220.719,0.002801508
1218.791,0.002797371
1216.863,0.002814013
1214.934,0.002858628
1213.006,0.002925513
1211.077,0.003002519
1209.149,0.003070025
1207.22,0.003109698
1205.292,0.003119564
1203.363,0.003111154
1201.435,0.003098497
1199.506,0.003082294
1197.578,0.003052038
1195.649,0.003010892
1193.721,0.002970622
1191.792,0.002927646
1189.864,0.002876057
1187.936,0.002815243
1186.007,0.002745752
1184.079,0.002678307
1182.15,0.002618029
1180.222,0.00255954
1178.293,0.002505989
1176.365,0.00245955
1174.436,0.002412695
1172.508,0.002366752
1170.579,0.002329908
1168.651,0.00230166
1166.722,0.002283405
1164.794,0.002280984
1162.865,0.002287564
1160.937,0.002290445
1159.009,0.002290336
1157.08,0.002296542
1155.152,0.002311185
1153.223,0.002325822
1151.295,0.00233468
1149.366,0.002342075
1147.438,0.002351226
1145.509,0.00236101
1143.581,0.002375884
1141.652,0.002401523
1139.724,0.002438865
1137.795,0.002483961
1135.867,0.002525914
1133.938,0.002555454
1132.01,0.002569118
1130.082,0.002568106
1128.153,0.002564889
1126.225,0.002568834
1124.296,0.002566118
1122.368,0.002545473
1120.439,0.002522495
1118.511,0.002507438
1116.582,0.002493517
1114.654,0.002487206
1112.725,0.00250463
1110.797,0.002547154
1108.868,0.002606668
1106.94,0.002680163
1105.011,0.002759831
1103.083,0.002833582
1101.155,0.002907602
1099.226,0.003001635
1097.298,0.003126119
1095.369,0.003284049
1093.441,0.003476274
1091.512,0.003700887
1089.584,0.003950709
1087.655,0.004194784
1085.727,0.004380994
1083.798,0.004465812
1081.87,0.004436258
1079.941,0.004315229
1078.013,0.004142579
1076.084,0.003948048
1074.156,0.003747616
1072.228,0.003552363
1070.299,0.003358239
1068.371,0.003141605
1066.442,0.002902969
1064.514,0.002696158
1062.585,0.002617522
1060.657,0.00272618
1058.728,0.002943643
1056.8,0.003134535
1054.871,0.003249418
1052.943,0.003311458
1051.014,0.003350333
1049.086,0.003370423
1047.157,0.003356058
1045.229,0.003302349
1043.301,0.003221418
1041.372,0.003133315
1039.444,0.003055109
1037.515,0.002990281
1035.587,0.002935447
1033.658,0.002892674
1031.73,0.00286633
1029.801,0.002853226
1027.873,0.002837735
1025.944,0.002807953
1024.016,0.002769126
1022.087,0.002719238
1020.159,0.00265336
1018.23,0.002589639
1016.302,0.002537846
1014.374,0.002484373
1012.445,0.002419868
1010.517,0.002344309
1008.588,0.002264589
1006.66,0.002193159
1004.731,0.002134485
1002.803,0.002086494
1000.874,0.002042557
998.946,0.001988561
997.017,0.001919784
995.089,0.001845665
993.16,0.001767068
991.232,0.001678555
989.303,0.001579753
987.375,0.001471726
985.447,0.001364498
983.518,0.001271951
981.59,0.001194621
979.661,0.00113595
977.733,0.001107122
975.804,0.001093442
973.876,0.001068865
971.947,0.001030107
970.019,0.000979442
968.09,0.000915005
966.162,0.000838933
964.233,0.000757344
962.305,0.000688172
960.376,0.000650915
958.448,0.000640339
956.52,0.000640385
954.591,0.000648856
952.663,0.000660326
950.734,0.000658372
948.806,0.000634962
946.877,0.000604377
944.949,0.00058812
943.02,0.000582204
941.092,0.000576823
939.163,0.00058359
937.235,0.000607586
935.306,0.000635017
933.378,0.000658466
931.449,0.000683603
929.521,0.000698687
927.593,0.000686779
925.664,0.000658423
923.736,0.00063801
921.807,0.000641013
919.879,0.000660372
917.95,0.000674367
916.022,0.000681209
914.093,0.000691662
912.165,0.000688227
910.236,0.000657115
908.308,0.000627327
906.379,0.000618867
904.451,0.000622796
902.522,0.000636215
900.594,0.000649345
898.666,0.000635274
896.737,0.000598615
894.809,0.000569338
892.88,0.000555636
890.952,0.000567316
889.023,0.000606545
887.095,0.000647453
885.166,0.000674673
883.238,0.000691573
881.309,0.00070027
879.381,0.000701656
877.452,0.000710281
875.524,0.000736706
873.595,0.000753285
871.667,0.000741086
869.739,0.000725285
867.81,0.000724865
865.882,0.000718311
863.953,0.000687337
862.025,0.000655244
860.096,0.000656213
858.168,0.000682229
856.239,0.00069566
854.311,0.000696893
852.382,0.00070795
850.454,0.000719479
848.525,0.000708209
846.597,0.000670652
844.668,0.0006264
842.74,0.000592996
840.812,0.000577313
838.883,0.000584623
836.955,0.000599787
835.026,0.000594525
833.098,0.000577304
831.169,0.000583431
829.241,0.000609491
827.312,0.000619489
825.384,0.000622075
823.455,0.000660747
821.527,0.000726043
819.598,0.00077919
817.67,0.000811699
815.741,0.000839288
813.813,0.000879731
811.885,0.00090538
809.956,0.000890167
808.028,0.000878544
806.099,0.00091155
804.171,0.000962916
802.242,0.000983823
800.314,0.00098547
798.385,0.001005153
796.457,0.001043074
794.528,0.001088286
792.6,0.001111765
790.671,0.00108142
788.743,0.001032529
786.814,0.001025845
784.886,0.001035097
782.958,0.00100822
781.029,0.000987528
779.101,0.00099572
777.172,0.001005316
775.244,0.001047668
773.315,0.001098646
771.387,0.001080527
769.458,0.001046518
767.53,0.00109218
765.601,0.00120433
763.673,0.001296345
761.744,0.001303713
759.816,0.001255002
757.887,0.001209446
755.959,0.001150748
754.031,0.001042513
752.102,0.000935895
750.174,0.000895251
748.245,0.000946644
746.317,0.001059749
744.388,0.001098946
742.46,0.001026438
740.531,0.000974202
738.603,0.001031491
736.674,0.001151344
734.746,0.001184435
732.817,0.001145635
730.889,0.001190199
728.96,0.001228481
727.032,0.001132629
725.104,0.000996324
723.175,0.000918656
721.247,0.000941884
719.318,0.001032501
717.39,0.001033383
715.461,0.000919581
713.533,0.000859607
711.604,0.000938461
709.676,0.001072144
707.747,0.001172959
705.819,0.001186462
703.89,0.00109928
701.962,0.001064289
700.033,0.001180662
698.105,0.001259923
696.177,0.001170885
694.248,0.00109353
692.32,0.00119788
690.391,0.001327846
688.463,0.001344649
686.534,0.001320637
684.606,0.001175482
682.677,0.000952529
680.749,0.000916774
678.82,0.000988339
676.892,0.001077743
674.963,0.001164419
673.035,0.001038239
671.106,0.001036428
669.178,0.001591181
667.25,0.001982605
665.321,0.001645223
663.393,0.001432479
661.464,0.001743638
659.536,0.002217371
657.607,0.002545441
655.679,0.002379066
653.75,0.0012912
651.822,-0.000254137
649.893,-0.000682445
647.965,0.000678562
646.036,0.001801186
644.108,0.001385681
642.179,0.00097372
640.251,0.000758401
638.323,-0.000366161
636.394,-0.001447048
634.466,-0.001578122
632.537,-0.001714007
630.609,-0.001803538
628.68,-0.000554708
626.752,0.001698508
624.823,0.003355929
622.895,0.003533058
620.966,0.003005553
619.038,0.00264329
617.109,0.002132818
615.181,0.001565053
613.252,0.000582236
611.324,-0.001190649
609.396,-0.001382517
607.467,0.000901496
605.539,0.001976376
603.61,0.001048574
601.682,0.001413015
599.753,0.003280296
597.825,0.003452785
595.896,0.000693691
593.968,-0.000998041
592.039,0.000895792
590.111,0.002871925
588.182,0.004349932
586.254,0.006066864
584.325,0.004451814
582.397,0.000377367
580.469,-0.00049798
578.54,0.000921746
576.612,0.001175207
574.683,0.00303402
572.755,0.006306051
570.826,0.006497037
568.898,0.004019722
566.969,0.003387223
565.041,0.006744065
563.112,0.009166834
561.184,0.008207988
559.255,0.007469816
557.327,0.005658246
555.398,0.002888041
553.47,0.002970079
551.542,0.001080539
549.613,-0.005019274
547.685,-0.005680263
545.756,0.000919725
543.828,0.005591505
541.899,0.005288819
539.971,0.003617554
538.042,0.001154199
536.114,-0.002229373
534.185,-0.004468379
532.257,-0.005827454
530.328,-0.004947559
528.4,0.000658986
526.471,0.006266322
524.543,0.007584995
522.615,0.006619888
520.686,0.004862596
518.758,0.002853021
516.829,-0.000197294
514.901,-0.003390909
512.972,-0.001975003
511.044,0.002271089
509.115,0.005968147
507.187,0.01072621
505.258,0.01341987
503.33,0.01335605
501.401,0.01481661
499.473,0.01525716
497.544,0.01394523
495.616,0.0148087
493.688,0.01510499
491.759,0.01137794
489.831,0.007558847
487.902,0.008649579
485.974,0.01106726
484.045,0.008642854
482.117,0.006241068
480.188,0.008847317
478.26,0.010324
476.331,0.007535942
474.403,0.007551674
472.474,0.01333958
470.546,0.0164583
468.617,0.01325933
466.689,0.009572379
464.76,0.007614
462.832,0.006308967
460.904,0.006304203
458.975,0.007060221
457.047,0.006599787
455.118,0.005312207
453.19,0.004478184
451.261,0.00437098
449.333,0.005858661
447.404,0.006528099
445.476,0.003700642
443.547,0.001280916
441.619,0.001934536
439.69,0.00322374
437.762,0.004499218
435.833,0.006245516
433.905,0.007628654
431.977,0.008934402
430.048,0.01016295
428.12,0.01025435
426.191,0.008707295
424.263,0.00622295
422.334,0.005826879
420.406,0.007934367
418.477,0.01083076
416.549,0.01491454
414.62,0.01656285
412.692,0.0129475
410.763,0.008676476
408.835,0.005407563
406.906,0.002844014
404.978,0.00325162
403.05,0.004529787
401.121,0.004646761
399.193,0.006306348
