Wavenumbers [1/cm],Absorbance
3997.712,-0.00052765
3995.783,-0.00053887
3993.855,-0.000542593
3991.926,-0.000541714
3989.998,-0.0005322
3988.069,-0.000514619
3986.141,-0.000503552
3984.212,-0.000509603
3982.284,-0.000513171
3980.355,-0.000503759
3978.427,-0.000499002
3976.499,-0.000510534
3974.57,-0.000530907
3972.642,-0.000541042
3970.713,-0.000545851
3968.785,-0.000563483
3966.856,-0.000579769
3964.928,-0.000576667
3962.999,-0.000564413
3961.071,-0.000558571
3959.142,-0.000558053
3957.214,-0.000548798
3955.285,-0.000524909
3953.357,-0.000513223
3951.428,-0.000527288
3949.5,-0.000531579
3947.572,-0.000518135
3945.643,-0.000525271
3943.715,-0.000547092
3941.786,-0.00054978
3939.858,-0.000537578
3937.929,-0.000530183
3936.001,-0.000531321
3934.072,-0.000534941
3932.144,-0.000536543
3930.215,-0.000530856
3928.287,-0.00050681
3926.358,-0.000479713
3924.43,-0.00048566
3922.501,-0.000526202
3920.573,-0.000563172
3918.645,-0.00056281
3916.716,-0.00052465
3914.788,-0.000487418
3912.859,-0.000488504
3910.931,-0.000507483
3909.002,-0.000513791
3907.074,-0.000526512
3905.145,-0.000557123
3903.217,-0.000572117
3901.288,-0.000553555
3899.36,-0.000522427
3897.431,-0.000505776
3895.503,-0.000514619
3893.574,-0.000523306
3891.646,-0.000514308
3889.718,-0.000517308
3887.789,-0.000538353
3885.861,-0.000554434
3883.932,-0.000566378
3882.004,-0.000572634
3880.075,-0.00055976
3878.147,-0.000543214
3876.218,-0.000542283
3874.29,-0.000539129
3872.361,-0.000523358
3870.433,-0.000514774
3868.504,-0.000525633
3866.576,-0.000541559
3864.647,-0.000548178
3862.719,-0.000555882
3860.791,-0.000569429
3858.862,-0.000587266
3856.934,-0.000606395
3855.005,-0.000607481
3853.077,-0.000589696
3851.148,-0.000573461
3849.22,-0.000555055
3847.291,-0.000530959
3845.363,-0.000529925
3843.434,-0.000552676
3841.506,-0.000569118
3839.577,-0.000581579
3837.649,-0.000594039
3835.72,-0.000590937
3833.792,-0.000569584
3831.864,-0.00054916
3829.935,-0.000558829
3828.007,-0.000589334
3826.078,-0.000589644
3824.15,-0.0005534
3822.221,-0.000537216
3820.293,-0.000563069
3818.364,-0.000586335
3816.436,-0.000578218
3814.507,-0.000563327
3812.579,-0.000566223
3810.65,-0.000579614
3808.722,-0.000595383
3806.793,-0.000601225
3804.865,-0.000584733
3802.937,-0.000567671
3801.008,-0.000564362
3799.08,-0.000560173
3797.151,-0.000553452
3795.223,-0.000550246
3793.294,-0.000554176
3791.366,-0.000571859
3789.437,-0.000587369
3787.509,-0.000577649
3785.58,-0.000554434
3783.652,-0.000538663
3781.723,-0.000540111
3779.795,-0.00056069
3777.866,-0.000592902
3775.938,-0.00062144
3774.01,-0.000628988
3772.081,-0.000614357
3770.153,-0.000584112
3768.224,-0.000557485
3766.296,-0.00056038
3764.367,-0.000583543
3762.439,-0.000607533
3760.51,-0.000628264
3758.582,-0.000641446
3756.653,-0.000638345
3754.725,-0.000617459
3752.796,-0.000598072
3750.868,-0.000589024
3748.939,-0.000563431
3747.011,-0.000518032
3745.083,-0.000469576
3743.154,-0.000394427
3741.226,-0.000290757
3739.297,-0.000194567
3737.369,-8.03E-05
3735.44,8.13E-05
3733.512,0.000242542
3731.583,0.000357244
3729.655,0.000424168
3727.726,0.000440259
3725.798,0.000391002
3723.869,0.0002916
3721.941,0.000169068
3720.012,-2.07E-07
3718.084,-0.000233946
3716.156,-0.00044651
3714.227,-0.000532562
3712.299,-0.000480075
3710.37,-0.000334887
3708.442,-0.000165173
3706.513,-4.57E-05
3704.585,-9.78E-06
3702.656,-3.91E-05
3700.728,-8.13E-05
3698.799,-0.000105602
3696.871,-0.000147111
3694.942,-0.000226754
3693.014,-0.00030752
3691.085,-0.000387392
3689.157,-0.000492951
3687.229,-0.000614409
3685.3,-0.000732473
3683.372,-0.000824668
3681.443,-0.000869054
3679.515,-0.000894009
3677.586,-0.000959051
3675.658,-0.001060392
3673.729,-0.001141726
3671.801,-0.001197644
3669.872,-0.001238068
3667.944,-0.0012502
3666.015,-0.001269764
3664.087,-0.001336556
3662.158,-0.0014182
3660.23,-0.001461803
3658.302,-0.001472277
3656.373,-0.001495289
3654.445,-0.00154136
3652.516,-0.001587735
3650.588,-0.001617704
3648.659,-0.001628174
3646.731,-0.001663143
3644.802,-0.001729978
3642.874,-0.001743385
3640.945,-0.001687021
3639.017,-0.001628071
3637.088,-0.001583196
3635.16,-0.00153001
3633.231,-0.0014811
3631.303,-0.001480481
3629.375,-0.001500964
3627.446,-0.001466292
3625.518,-0.001402306
3623.589,-0.001370774
3621.661,-0.001391211
3619.732,-0.001502821
3617.804,-0.001691559
3615.875,-0.00187073
3613.947,-0.001971962
3612.018,-0.001958356
3610.09,-0.001892845
3608.161,-0.001874957
3606.233,-0.001871452
3604.304,-0.001833665
3602.376,-0.001786284
3600.448,-0.00173993
3598.519,-0.001689754
3596.591,-0.001649373
3594.662,-0.001670982
3592.734,-0.001777158
3590.805,-0.001878978
3588.877,-0.001915473
3586.948,-0.001935936
3585.02,-0.001968096
3583.091,-0.002020404
3581.163,-0.002108926
3579.234,-0.002205363
3577.306,-0.002288647
3575.377,-0.002322944
3573.449,-0.002277162
3571.521,-0.002244406
3569.592,-0.002295857
3567.664,-0.002371553
3565.735,-0.002417326
3563.807,-0.002419385
3561.878,-0.002394775
3559.95,-0.002402086
3558.021,-0.002462681
3556.093,-0.002495112
3554.164,-0.002433594
3552.236,-0.002378659
3550.307,-0.002412177
3548.379,-0.002465873
3546.45,-0.002504068
3544.522,-0.002529239
3542.594,-0.002524658
3540.665,-0.002527437
3538.737,-0.002578442
3536.808,-0.002623061
3534.88,-0.002629853
3532.951,-0.002646989
3531.023,-0.002665925
3529.094,-0.002705235
3527.166,-0.002808895
3525.237,-0.002879205
3523.309,-0.002853027
3521.38,-0.002791252
3519.452,-0.002726483
3517.523,-0.002691137
3515.595,-0.002732657
3513.667,-0.002823195
3511.738,-0.002930889
3509.81,-0.003017787
3507.881,-0.003016553
3505.953,-0.002987503
3504.024,-0.003034136
3502.096,-0.003152315
3500.167,-0.00331208
3498.239,-0.003434087
3496.31,-0.003399158
3494.382,-0.003299749
3492.453,-0.003333042
3490.525,-0.003417959
3488.596,-0.00344549
3486.668,-0.003535982
3484.74,-0.003673533
3482.811,-0.00369422
3480.883,-0.003617213
3478.954,-0.003564379
3477.026,-0.003578294
3475.097,-0.003659774
3473.169,-0.003775063
3471.24,-0.003859226
3469.312,-0.003930546
3467.383,-0.00403294
3465.455,-0.004139976
3463.526,-0.004293791
3461.598,-0.004513652
3459.669,-0.004646642
3457.741,-0.004654325
3455.813,-0.004644183
3453.884,-0.004598697
3451.956,-0.004547518
3450.027,-0.004647462
3448.099,-0.004861768
3446.17,-0.004991274
3444.242,-0.004978427
3442.313,-0.004935842
3440.385,-0.005010364
3438.456,-0.00518106
3436.528,-0.005279579
3434.599,-0.005255386
3432.671,-0.005166326
3430.742,-0.005144736
3428.814,-0.005295843
3426.885,-0.005456816
3424.957,-0.005494085
3423.029,-0.005520463
3421.1,-0.00560669
3419.172,-0.005733573
3417.243,-0.00583636
3415.315,-0.005798813
3413.386,-0.005690908
3411.458,-0.005707923
3409.529,-0.00585245
3407.601,-0.006081581
3405.672,-0.006338041
3403.744,-0.006481134
3401.815,-0.006495211
3399.887,-0.006467974
3397.958,-0.006521579
3396.03,-0.006678275
3394.102,-0.00672176
3392.173,-0.006566151
3390.245,-0.006487153
3388.316,-0.006688114
3386.388,-0.006981715
3384.459,-0.007171296
3382.531,-0.007227614
3380.602,-0.007072033
3378.674,-0.006807291
3376.745,-0.006742456
3374.817,-0.006899938
3372.888,-0.007098112
3370.96,-0.007298587
3369.031,-0.007373468
3367.103,-0.007186114
3365.175,-0.006944879
3363.246,-0.006881594
3361.318,-0.007001431
3359.389,-0.007168036
3357.461,-0.007209691
3355.532,-0.007152556
3353.604,-0.007102237
3351.675,-0.006997355
3349.747,-0.006745616
3347.818,-0.006388244
3345.89,-0.006140797
3343.961,-0.006234965
3342.033,-0.006476951
3340.104,-0.006442725
3338.176,-0.006169075
3336.248,-0.005987992
3334.319,-0.006045026
3332.391,-0.006156774
3330.462,-0.006054726
3328.534,-0.005921401
3326.605,-0.005940042
3324.677,-0.005827676
3322.748,-0.00554137
3320.82,-0.00534003
3318.891,-0.005195998
3316.963,-0.005026894
3315.034,-0.005023874
3313.106,-0.005149852
3311.177,-0.004992092
3309.249,-0.004554537
3307.321,-0.004271594
3305.392,-0.004259188
3303.464,-0.004236938
3301.535,-0.004061868
3299.607,-0.003975129
3297.678,-0.004025554
3295.75,-0.003905868
3293.821,-0.003633437
3291.893,-0.00354086
3289.964,-0.003713265
3288.036,-0.00398308
3286.107,-0.004217352
3284.179,-0.004338644
3282.25,-0.004267031
3280.322,-0.004042993
3278.394,-0.003813503
3276.465,-0.003647607
3274.537,-0.003582248
3272.608,-0.003677126
3270.68,-0.003858405
3268.751,-0.003953274
3266.823,-0.004039198
3264.894,-0.004297226
3262.966,-0.004556843
3261.037,-0.004661598
3259.109,-0.004659447
3257.18,-0.004567089
3255.252,-0.004519186
3253.323,-0.004586402
3251.395,-0.004634349
3249.467,-0.004541114
3247.538,-0.004396817
3245.61,-0.004445758
3243.681,-0.004679474
3241.753,-0.004970494
3239.824,-0.005217125
3237.896,-0.005224849
3235.967,-0.005042963
3234.039,-0.004937377
3232.11,-0.00506814
3230.182,-0.005428032
3228.253,-0.005749871
3226.325,-0.005666227
3224.396,-0.00533328
3222.468,-0.005287916
3220.54,-0.00545017
3218.611,-0.005483605
3216.683,-0.005511824
3214.754,-0.005474403
3212.826,-0.005273799
3210.897,-0.005184795
3208.969,-0.005156862
3207.04,-0.004967628
3205.112,-0.004825623
3203.183,-0.004976124
3201.255,-0.005170266
3199.326,-0.005056012
3197.398,-0.0048332
3195.469,-0.004726693
3193.541,-0.004582099
3191.613,-0.004430128
3189.684,-0.004391692
3187.756,-0.004387335
3185.827,-0.004454572
3183.899,-0.004596392
3181.97,-0.004578155
3180.042,-0.004377957
3178.113,-0.004207354
3176.185,-0.004153463
3174.256,-0.004181922
3172.328,-0.004154386
3170.399,-0.004008524
3168.471,-0.00394091
3166.542,-0.004028734
3164.614,-0.004046379
3162.686,-0.003864511
3160.757,-0.003669888
3158.829,-0.003624247
3156.9,-0.003624658
3154.972,-0.003557857
3153.043,-0.003447545
3151.115,-0.003357753
3149.186,-0.003334583
3147.258,-0.003290603
3145.329,-0.00314147
3143.401,-0.003039071
3141.472,-0.003021745
3139.544,-0.002931918
3137.615,-0.002883114
3135.687,-0.003002774
3133.759,-0.003043081
3131.83,-0.00286033
3129.902,-0.002647555
3127.973,-0.002537886
3126.045,-0.002519099
3124.116,-0.00254365
3122.188,-0.002504583
3120.259,-0.002329329
3118.331,-0.002093367
3116.402,-0.001960005
3114.474,-0.001967272
3112.545,-0.001980362
3110.617,-0.001909082
3108.688,-0.001784738
3106.76,-0.001673716
3104.832,-0.001577934
3102.903,-0.001440802
3100.975,-0.001305742
3099.046,-0.001270435
3097.118,-0.00128938
3095.189,-0.001237087
3093.261,-0.001106715
3091.332,-0.00098958
3089.404,-0.000907235
3087.475,-0.0007871
3085.547,-0.000628212
3083.618,-0.000531373
3081.69,-0.000492589
3079.761,-0.000405289
3077.833,-0.000268096
3075.905,-0.000170503
3073.976,-0.000152804
3072.048,-0.000168226
3070.119,-0.000144368
3068.191,-5.73E-05
3066.262,5.26E-05
3064.334,0.000133903
3062.405,0.000191469
3060.477,0.000270385
3058.548,0.000356078
3056.62,0.000376183
3054.691,0.000330482
3052.763,0.0003038
3050.834,0.000331208
3048.906,0.000359135
3046.978,0.000361596
3045.049,0.000376882
3043.121,0.000407896
3041.192,0.000435517
3039.264,0.000473454
3037.335,0.00052513
3035.407,0.00056691
3033.478,0.000585184
3031.55,0.000603174
3029.621,0.000622745
3027.693,0.000607865
3025.764,0.000571317
3023.836,0.000537751
3021.907,0.000512508
3019.979,0.00054913
3018.051,0.00064968
3016.122,0.000708844
3014.194,0.00069041
3012.265,0.000656369
3010.337,0.000629848
3008.408,0.000606854
3006.48,0.000601411
3004.551,0.000622278
3002.623,0.000675372
3000.694,0.000746442
2998.766,0.000801651
2996.837,0.000837701
2994.909,0.000881042
2992.98,0.000939641
2991.052,0.001006551
2989.124,0.001091221
2987.195,0.001191481
2985.267,0.001288702
2983.338,0.001379399
2981.41,0.001474298
2979.481,0.00158613
2977.553,0.001708543
2975.624,0.001821969
2973.696,0.001921697
2971.767,0.002020199
2969.839,0.002129805
2967.91,0.002244538
2965.982,0.002365991
2964.053,0.002494793
2962.125,0.002586186
2960.197,0.002616967
2958.268,0.00261629
2956.34,0.002582749
2954.411,0.002502188
2952.483,0.002407793
2950.554,0.002336008
2948.626,0.002284871
2946.697,0.002233428
2944.769,0.002186934
2942.84,0.002167708
2940.912,0.002175564
2938.983,0.002195571
2937.055,0.002193776
2935.126,0.002145439
2933.198,0.002082021
2931.27,0.002036843
2929.341,0.001996455
2927.413,0.001931863
2925.484,0.001848537
2923.556,0.00177279
2921.627,0.001708517
2919.699,0.001651503
2917.77,0.001601278
2915.842,0.001556955
2913.913,0.001516534
2911.985,0.001489285
2910.056,0.001485597
2908.128,0.00147409
2906.199,0.001430846
2904.271,0.001388255
2902.343,0.001361404
2900.414,0.001328998
2898.486,0.001290779
2896.557,0.001266348
2894.629,0.00125451
2892.7,0.001237168
2890.772,0.001214428
2888.843,0.001198724
2886.915,0.001204252
2884.986,0.001240699
2883.058,0.001290727
2881.129,0.001332529
2879.201,0.001364494
2877.272,0.001389371
2875.344,0.001416821
2873.416,0.001449805
2871.487,0.001463831
2869.559,0.001437131
2867.63,0.00136896
2865.702,0.00127071
2863.773,0.00117095
2861.845,0.001096567
2859.916,0.001034677
2857.988,0.000960681
2856.059,0.000886982
2854.131,0.000837701
2852.202,0.000809691
2850.274,0.000782383
2848.345,0.00075627
2846.417,0.000750565
2844.489,0.000762882
2842.56,0.000768717
2840.632,0.000759511
2838.703,0.000751991
2836.775,0.000754766
2834.846,0.000753962
2832.918,0.000737651
2830.989,0.000708222
2829.061,0.000686572
2827.132,0.000689139
2825.204,0.000695751
2823.275,0.000689139
2821.347,0.000675865
2819.418,0.00065922
2817.49,0.000644339
2815.562,0.000637107
2813.633,0.000632466
2811.705,0.000627696
2809.776,0.000624404
2807.848,0.000615409
2805.919,0.000605429
2803.991,0.000603459
2802.062,0.00059379
2800.134,0.000574686
2798.205,0.000565485
2796.277,0.000567169
2794.348,0.000572639
2792.42,0.000572924
2790.491,0.000559912
2788.563,0.000538944
2786.635,0.00051199
2784.706,0.000480528
2782.778,0.000461585
2780.849,0.000463451
2778.921,0.000468582
2776.992,0.000463269
2775.064,0.000449613
2773.135,0.000430516
2771.207,0.000407326
2769.278,0.000386365
2767.35,0.000377297
2765.421,0.000376234
2763.493,0.000369006
2761.564,0.000355664
2759.636,0.000348746
2757.708,0.000347347
2755.779,0.000342088
2753.851,0.000334524
2751.922,0.000329679
2749.994,0.000326441
2748.065,0.000325768
2746.137,0.00032797
2744.208,0.000323281
2742.28,0.000300278
2740.351,0.000271033
2738.423,0.000260102
2736.494,0.000258626
2734.566,0.000243086
2732.637,0.000223013
2730.709,0.000219051
2728.781,0.000225448
2726.852,0.000226872
2724.924,0.000220967
2722.995,0.000204314
2721.067,0.000174144
2719.138,0.000148999
2717.21,0.000145296
2715.281,0.000151433
2713.353,0.000152133
2711.424,0.000153557
2709.496,0.000164303
2707.567,0.000171477
2705.639,0.000164329
2703.71,0.000152935
2701.782,0.000145245
2699.854,0.000141335
2697.925,0.000141671
2695.997,0.000144235
2694.068,0.00014136
2692.14,0.000128854
2690.211,0.000120102
2688.283,0.000125073
2686.354,0.000131339
2684.426,0.000127921
2682.497,0.000125746
2680.569,0.000135275
2678.64,0.000142603
2676.712,0.000136182
2674.783,0.000126238
2672.855,0.000117046
2670.927,0.000100242
2668.998,8.39E-05
2667.07,8.36E-05
2665.141,8.99E-05
2663.213,9.12E-05
2661.284,9.38E-05
2659.356,0.000101459
2657.427,0.000111013
2655.499,0.000116994
2653.57,0.000118859
2651.642,0.000119946
2649.713,0.000118186
2647.785,0.000108036
2645.856,9.20E-05
2643.928,7.84E-05
2642,6.76E-05
2640.071,5.89E-05
2638.143,5.36E-05
2636.214,5.15E-05
2634.286,5.89E-05
2632.357,6.29E-05
2630.429,3.89E-05
2628.5,4.12E-06
2626.572,-6.73E-06
2624.643,7.82E-06
2622.715,2.31E-05
2620.786,1.70E-05
2618.858,1.48E-06
2616.929,-3.37E-06
2615.001,-1.89E-05
2613.073,-3.72E-05
2611.144,-1.64E-05
2609.216,1.42E-05
2607.287,1.13E-05
2605.359,-6.83E-06
2603.43,-2.31E-05
2601.502,-3.86E-05
2599.573,-4.06E-05
2597.645,-2.20E-05
2595.716,-2.47E-05
2593.788,-7.84E-05
2591.859,-0.000118956
2589.931,-9.91E-05
2588.002,-7.70E-05
2586.074,-9.74E-05
2584.146,-0.000113987
2582.217,-9.76E-05
2580.289,-9.56E-05
2578.36,-9.99E-05
2576.432,-7.74E-05
2574.503,-7.64E-05
2572.575,-9.90E-05
2570.646,-8.49E-05
2568.718,-4.22E-05
2566.789,-3.46E-05
2564.861,-7.71E-05
2562.932,-0.000104153
2561.004,-9.33E-05
2559.075,-0.00011171
2557.147,-0.000167864
2555.219,-0.000175937
2553.29,-0.000125839
2551.362,-9.81E-05
2549.433,-0.000123407
2547.505,-0.000166777
2545.576,-0.000199483
2543.648,-0.000228617
2541.719,-0.000253402
2539.791,-0.000261421
2537.862,-0.000261059
2535.934,-0.000272649
2534.005,-0.00029531
2532.077,-0.000288688
2530.148,-0.000261007
2528.22,-0.000241656
2526.292,-0.000192704
2524.363,-0.000138778
2522.435,-0.000152597
2520.506,-0.000181526
2518.578,-0.000162896
2516.649,-0.00017485
2514.721,-0.000247089
2512.792,-0.000279737
2510.864,-0.000248279
2508.935,-0.000212317
2507.007,-0.000178887
2505.078,-0.00012646
2503.15,-8.57E-05
2501.221,-0.000103532
2499.293,-0.000142919
2497.365,-0.000129411
2495.436,-0.0001085
2493.508,-0.000151355
2491.579,-0.000198604
2489.651,-0.000204503
2487.722,-0.000191721
2485.794,-0.000163051
2483.865,-0.000126719
2481.937,-0.000127858
2480.008,-0.000203157
2478.08,-0.000297638
2476.151,-0.000326765
2474.223,-0.000304778
2472.294,-0.000302346
2470.366,-0.000309796
2468.438,-0.000282169
2466.509,-0.000276167
2464.581,-0.000320712
2462.652,-0.000329973
2460.724,-0.000290809
2458.795,-0.00026851
2456.867,-0.000282479
2454.938,-0.000321281
2453.01,-0.000358683
2451.081,-0.000372805
2449.153,-0.000370581
2447.224,-0.000346216
2445.296,-0.00032242
2443.367,-0.00035351
2441.439,-0.00041072
2439.51,-0.000424219
2437.582,-0.000408651
2435.654,-0.000402547
2433.725,-0.000400996
2431.797,-0.000406168
2429.868,-0.00039634
2427.94,-0.000360132
2426.011,-0.00035351
2424.083,-0.000377357
2422.154,-0.000389771
2420.226,-0.000416151
2418.297,-0.000468904
2416.369,-0.000474334
2414.44,-0.000407409
2412.512,-0.000367994
2410.583,-0.00040922
2408.655,-0.00046275
2406.727,-0.000460371
2404.798,-0.000405909
2402.87,-0.000356562
2400.941,-0.000348906
2399.013,-0.000360028
2397.084,-0.000375133
2395.156,-0.000400427
2393.227,-0.000414702
2391.299,-0.000399496
2389.37,-0.000336956
2387.442,-0.000144782
2385.513,0.000333177
2383.585,0.001221852
2381.656,0.002611733
2379.728,0.004616386
2377.8,0.007220028
2375.871,0.01020791
2373.943,0.0132618
2372.014,0.01610518
2370.086,0.01865624
2368.157,0.02094713
2366.229,0.02293121
2364.3,0.02445157
2362.372,0.02540801
2360.443,0.02574982
2358.515,0.02536715
2356.586,0.02415121
2354.658,0.02192806
2352.729,0.01843099
2350.801,0.01451008
2348.873,0.01259672
2346.944,0.01401242
2345.016,0.0170379
2343.087,0.01894739
2341.159,0.01934737
2339.23,0.01911949
2337.302,0.01866538
2335.373,0.01818474
2333.445,0.01786041
2331.516,0.01758508
2329.588,0.01698056
2327.659,0.0160485
2325.731,0.0152126
2323.802,0.01457012
2321.874,0.01374617
2319.946,0.01248668
2318.017,0.01099006
2316.089,0.009629682
2314.16,0.008523845
2312.232,0.007469849
2310.303,0.00637598
2308.375,0.00532136
2306.446,0.004347204
2304.518,0.003502948
2302.589,0.002836248
2300.661,0.002305013
2298.732,0.001847861
2296.804,0.001482142
2294.875,0.001192727
2292.947,0.000908745
2291.019,0.000605144
2289.09,0.000295071
2287.162,1.42E-05
2285.233,-0.000197413
2283.305,-0.000321799
2281.376,-0.000362097
2279.448,-0.000246209
2277.519,4.34E-05
2275.591,0.00034841
2273.662,0.000536196
2271.734,0.000460419
2269.805,0.000129553
2267.877,-0.000183389
2265.948,-0.000338353
2264.02,-0.000321488
2262.092,-0.000228306
2260.163,-0.000245847
2258.235,-0.000273632
2256.306,-0.000226961
2254.378,-0.000340681
2252.449,-0.000568032
2250.521,-0.000517049
2248.592,-0.000151976
2246.664,0.000136907
2244.735,9.48E-05
2242.807,-0.000208022
2240.878,-0.000467301
2238.95,-0.000442528
2237.021,-0.000353665
2235.093,-0.000230945
2233.165,0.000142836
2231.236,0.000217289
2229.308,-0.000427064
2227.379,-0.001059823
2225.451,-0.001142965
2223.522,-0.001077847
2221.594,-0.001213907
2219.665,-0.001483525
2217.737,-0.001616311
2215.808,-0.001164084
2213.88,-0.000388582
2211.951,-0.000228979
2210.023,-0.000571342
2208.094,-0.000624542
2206.166,-0.000607688
2204.238,-0.000923044
2202.309,-0.001208486
2200.381,-0.001079913
2198.452,-0.000674685
2196.524,-0.000592695
2194.595,-0.001086059
2192.667,-0.001603726
2190.738,-0.001759937
2188.81,-0.001523303
2186.881,-0.000862957
2184.953,-0.00044227
2183.024,-0.001043658
2181.096,-0.001912844
2179.167,-0.001806908
2177.239,-0.000993144
2175.311,-0.000530494
2173.382,-0.000550866
2171.454,-0.000464456
2169.525,-0.000230324
2167.597,6.15E-05
2165.668,0.000571654
2163.74,0.000742837
2161.811,-0.000568963
2159.883,-0.002582251
2157.954,-0.002037512
2156.026,0.000482213
2154.097,0.001280783
2152.169,-3.24E-05
2150.24,-0.001720644
2148.312,-0.002272784
2146.384,-0.001711775
2144.455,-0.001040507
2142.527,-0.000812835
2140.598,-0.001001511
2138.67,-0.001375058
2136.741,-0.001646897
2134.813,-0.001501531
2132.884,-0.00106349
2130.956,-0.000717846
2129.027,-0.000545747
2127.099,-0.000559346
2125.17,-0.000667759
2123.242,-0.000691433
2121.313,-0.00064553
2119.385,-0.000567722
2117.457,-0.000419668
2115.528,-0.000297638
2113.6,-0.000335508
2111.671,-0.000491245
2109.743,-0.000621491
2107.814,-0.000609859
2105.886,-0.000460319
2103.957,-0.000293241
2102.029,-0.000202174
2100.1,-0.000219095
2098.172,-0.000400634
2096.243,-0.000739502
2094.315,-0.000930535
2092.386,-0.000770614
2090.458,-0.000588869
2088.53,-0.000589231
2086.601,-0.000564982
2084.673,-0.000571807
2082.744,-0.000803998
2080.816,-0.000968917
2078.887,-0.00083521
2076.959,-0.000589024
2075.03,-0.000436891
2073.102,-0.000446976
2071.173,-0.000403582
2069.245,-0.000149802
2067.316,0.000216927
2065.388,0.000442694
2063.459,0.000217989
2061.531,-0.000101047
2059.603,-9.04E-05
2057.674,8.72E-05
2055.746,0.000402584
2053.817,0.000654632
2051.889,0.000404994
2049.96,-0.000230014
2048.032,-0.000780847
2046.103,-0.001170641
2044.175,-0.001314207
2042.246,-0.000689624
2040.318,0.000606595
2038.389,0.001797899
2036.461,0.002433719
2034.532,0.00234759
2032.604,0.0009137
2030.676,-0.001736527
2028.747,-0.003197491
2026.819,-0.002131286
2024.89,-0.000634881
2022.962,-0.00011968
2021.033,8.17E-05
2019.105,3.14E-05
2017.176,0.000146099
2015.248,0.000882417
2013.319,0.001497935
2011.391,0.001914703
2009.462,0.001626506
2007.534,1.75E-05
2005.605,-0.000850814
2003.677,0.000177381
2001.749,0.000999805
1999.82,0.000749553
1997.892,0.000719527
1995.963,0.001088963
1994.035,0.001189742
1992.106,0.000946179
1990.178,8.46E-05
1988.249,-0.001302697
1986.321,-0.002088524
1984.392,-0.001713012
1982.464,-0.001070256
1980.535,-0.0009046
1978.607,-0.000998567
1976.678,-0.000809579
1974.75,-0.000113262
1972.822,8.06E-05
1970.893,-0.00095497
1968.965,-0.002128453
1967.036,-0.002009428
1965.108,-0.000731646
1963.179,0.000395329
1961.251,0.000639181
1959.322,0.000273649
1957.394,3.65E-06
1955.465,-5.89E-05
1953.537,-0.000301157
1951.608,-0.000685075
1949.68,-0.000833866
1947.751,-0.000579821
1945.823,-0.000245226
1943.895,-0.000191203
1941.966,-0.000397737
1940.038,-0.000770097
1938.109,-0.001098298
1936.181,-0.001053316
1934.252,-0.000716088
1932.324,-0.000547505
1930.395,-0.000700168
1928.467,-0.000811078
1926.538,-0.000682336
1924.61,-0.000568498
1922.681,-0.000609135
1920.753,-0.000637362
1918.824,-0.000617201
1916.896,-0.000694534
1914.968,-0.000787668
1913.039,-0.000756299
1911.111,-0.000726632
1909.182,-0.000727821
1907.254,-0.000668792
1905.325,-0.000565809
1903.397,-0.000447286
1901.468,-0.000397065
1899.54,-0.000434977
1897.611,-0.000483178
1895.683,-0.000533596
1893.754,-0.000597968
1891.826,-0.000674479
1889.897,-0.000737899
1887.969,-0.000742551
1886.041,-0.00068461
1884.112,-0.000665019
1882.184,-0.00075387
1880.255,-0.000808701
1878.327,-0.000734747
1876.398,-0.000626971
1874.47,-0.000552624
1872.541,-0.000486332
1870.613,-0.00041403
1868.684,-0.000411702
1866.756,-0.000509758
1864.827,-0.000593108
1862.899,-0.000591609
1860.97,-0.00058344
1859.042,-0.000608618
1857.114,-0.000615029
1855.185,-0.00060898
1853.257,-0.000635088
1851.328,-0.000694069
1849.4,-0.000750769
1847.471,-0.000765084
1845.543,-0.000732731
1843.614,-0.000672411
1841.686,-0.000606809
1839.757,-0.000566947
1837.829,-0.000559294
1835.9,-0.000554589
1833.972,-0.000554279
1832.043,-0.000575478
1830.115,-0.000581475
1828.187,-0.000565861
1826.258,-0.000585715
1824.33,-0.000635812
1822.401,-0.000643876
1820.473,-0.000609394
1818.544,-0.00058313
1816.616,-0.00055764
1814.687,-0.000535302
1812.759,-0.000545903
1810.83,-0.000571393
1808.902,-0.000585922
1806.973,-0.000583647
1805.045,-0.000567722
1803.116,-0.000566792
1801.188,-0.000587835
1799.26,-0.00059833
1797.331,-0.000593005
1795.403,-0.000595176
1793.474,-0.000616632
1791.546,-0.000642377
1789.617,-0.00063974
1787.689,-0.000620716
1785.76,-0.000626816
1783.832,-0.000641653
1781.903,-0.00062816
1779.975,-0.000605258
1778.046,-0.000607533
1776.118,-0.000636277
1774.189,-0.00066657
1772.261,-0.000671067
1770.333,-0.000657265
1768.404,-0.000652768
1766.476,-0.000659281
1764.547,-0.000666673
1762.619,-0.00067055
1760.69,-0.000673186
1758.762,-0.000687711
1756.833,-0.000713246
1754.905,-0.00072932
1752.976,-0.000727769
1751.048,-0.00071309
1749.119,-0.000693811
1747.191,-0.000685334
1745.262,-0.000691536
1743.334,-0.000704924
1741.406,-0.000724978
1739.477,-0.000741931
1737.549,-0.000743481
1735.62,-0.000750252
1733.692,-0.000772216
1731.763,-0.000786325
1729.835,-0.000789012
1727.906,-0.000791854
1725.978,-0.000798831
1724.049,-0.000807874
1722.121,-0.00081578
1720.192,-0.000833556
1718.264,-0.000861872
1716.335,-0.000879904
1714.407,-0.000870862
1712.479,-0.000841875
1710.55,-0.000814127
1708.622,-0.000795833
1706.693,-0.000775679
1704.765,-0.000733713
1702.836,-0.00066321
1700.908,-0.000567671
1698.979,-0.000427064
1697.051,-0.000219147
1695.122,5.36E-05
1693.194,0.000381727
1691.265,0.000763141
1689.337,0.001189249
1687.408,0.001627987
1685.48,0.00207349
1683.552,0.002555329
1681.623,0.003075999
1679.695,0.003622248
1677.766,0.004192001
1675.838,0.004793229
1673.909,0.005456966
1671.981,0.006212172
1670.052,0.007067031
1668.124,0.008007971
1666.195,0.009010996
1664.267,0.0100924
1662.338,0.01128784
1660.41,0.01256093
1658.481,0.0137847
1656.553,0.01478596
1654.625,0.01541664
1652.696,0.01563107
1650.768,0.01549005
1648.839,0.01508812
1646.911,0.01452869
1644.982,0.0139218
1643.054,0.01332108
1641.125,0.01273278
1639.197,0.01216183
1637.268,0.01160036
1635.34,0.01103308
1633.411,0.01046051
1631.483,0.009887515
1629.554,0.009306225
1627.626,0.008715492
1625.698,0.008122237
1623.769,0.007542251
1621.841,0.007002206
1619.912,0.006499487
1617.984,0.006006561
1616.055,0.005520853
1614.127,0.005057005
1612.198,0.004621095
1610.27,0.004220021
1608.341,0.003869955
1606.413,0.003594058
1604.484,0.003386786
1602.556,0.003220477
1600.627,0.003098264
1598.699,0.003036166
1596.771,0.003031552
1594.842,0.003072375
1592.914,0.003147228
1590.985,0.003250808
1589.057,0.003378203
1587.128,0.003531472
1585.2,0.003720797
1583.271,0.003946435
1581.343,0.004200287
1579.414,0.004469979
1577.486,0.004753552
1575.557,0.005070283
1573.629,0.005423729
1571.7,0.005798791
1569.772,0.006211699
1567.844,0.00670052
1565.915,0.007284622
1563.987,0.007961302
1562.058,0.008739104
1560.13,0.009658346
1558.201,0.01072998
1556.273,0.01188663
1554.344,0.01304199
1552.416,0.01410705
1550.487,0.01496885
1548.559,0.01553118
1546.63,0.01575467
1544.702,0.01565686
1542.773,0.01528443
1540.845,0.01469411
1538.917,0.01396246
1536.988,0.01316877
1535.06,0.01235499
1533.131,0.0115448
1531.203,0.01076663
1529.274,0.01004109
1527.346,0.009381578
1525.417,0.008789316
1523.489,0.008255423
1521.56,0.007783718
1519.632,0.007367497
1517.703,0.006963642
1515.775,0.00653751
1513.846,0.006079033
1511.918,0.005592851
1509.99,0.005110198
1508.061,0.004658196
1506.133,0.00425212
1504.204,0.003908664
1502.276,0.00363
1500.347,0.003400092
1498.419,0.003182039
1496.49,0.002946268
1494.562,0.002695076
1492.633,0.0024408
1490.705,0.002209048
1488.776,0.002025764
1486.848,0.001888235
1484.919,0.001784174
1482.991,0.001715014
1481.063,0.0016936
1479.134,0.001730477
1477.206,0.001827818
1475.277,0.001980956
1473.349,0.002171662
1471.42,0.002354565
1469.492,0.00247105
1467.563,0.002503932
1465.635,0.002503151
1463.706,0.00253554
1461.778,0.0026284
1459.849,0.002754519
1457.921,0.002866447
1455.992,0.002937147
1454.064,0.002951637
1452.135,0.002907985
1450.207,0.002839531
1448.279,0.002785495
1446.35,0.002755822
1444.422,0.002734903
1442.493,0.002700884
1440.565,0.002642203
1438.636,0.002549236
1436.708,0.002421563
1434.779,0.002291559
1432.851,0.002195753
1430.922,0.002145439
1428.994,0.002139612
1427.065,0.002166615
1425.137,0.002208554
1423.208,0.002261972
1421.28,0.002324922
1419.352,0.002388791
1417.423,0.002453764
1415.495,0.002521923
1413.566,0.00259879
1411.638,0.00270737
1409.709,0.002864363
1407.781,0.003058011
1405.852,0.003256676
1403.924,0.003431243
1401.995,0.003568323
1400.067,0.003658897
1398.138,0.003695394
1396.21,0.003679834
1394.281,0.003617523
1392.353,0.003519076
1390.425,0.003404266
1388.496,0.003278454
1386.568,0.003113646
1384.639,0.002881248
1382.711,0.002599311
1380.782,0.002321825
1378.854,0.002090865
1376.925,0.001920059
1374.997,0.001800862
1373.068,0.001723434
1371.14,0.00169017
1369.211,0.001687519
1367.283,0.001674968
1365.354,0.001621466
1363.426,0.001537082
1361.498,0.001460922
1359.569,0.001419938
1357.641,0.00140903
1355.712,0.001408303
1353.784,0.001414666
1351.855,0.001441572
1349.927,0.001488688
1347.998,0.001542225
1346.07,0.001596601
1344.141,0.001652984
1342.213,0.001703085
1340.284,0.001743914
1338.356,0.001787917
1336.427,0.001834525
1334.499,0.001878174
1332.571,0.001926273
1330.642,0.001982179
1328.714,0.002044074
1326.785,0.002113443
1324.857,0.002191356
1322.928,0.002268737
1321,0.002333484
1319.071,0.002390119
1317.143,0.002448818
1315.214,0.002506119
1313.286,0.002556215
1311.357,0.002598712
1309.429,0.002637072
1307.5,0.002677208
1305.572,0.002704114
1303.644,0.002695857
1301.715,0.00266007
1299.787,0.002621603
1297.858,0.00259853
1295.93,0.002588452
1294.001,0.002572072
1292.073,0.002539784
1290.144,0.002499297
1288.216,0.002457591
1286.287,0.002412947
1284.359,0.002368412
1282.43,0.00232539
1280.502,0.002279016
1278.573,0.002237981
1276.645,0.002210141
1274.717,0.002188208
1272.788,0.002174524
1270.86,0.002174862
1268.931,0.002174784
1267.003,0.002165106
1265.074,0.002156807
1263.146,0.002154934
1261.217,0.002151578
1259.289,0.002144736
1257.36,0.002145569
1255.432,0.002160606
1253.503,0.002177385
1251.575,0.00218441
1249.646,0.00218428
1247.718,0.002180507
1245.79,0.002168072
1243.861,0.002143982
1241.933,0.002109723
1240.004,0.002068132
1238.076,0.002017156
1236.147,0.001946866
1234.219,0.001859507
1232.29,0.001764732
1230.362,0.001660338
1228.433,0.00155137
1226.505,0.001452195
1224.576,0.001367246
1222.648,0.001293427
1220.719,0.001229017
1218.791,0.001175077
1216.863,0.001131369
1214.934,0.001094024
1213.006,0.00106156
1211.077,0.001031252
1209.149,0.001000375
1207.22,0.000975261
1205.292,0.000958086
1203.363,0.000937929
1201.435,0.000909861
1199.506,0.000885451
1197.578,0.00087767
1195.649,0.00088361
1193.721,0.000895749
1191.792,0.000911158
1189.864,0.000925321
1187.936,0.000938551
1186.007,0.000956971
1184.079,0.000982551
1182.15,0.001021677
1180.222,0.001086368
1178.293,0.001174999
1176.365,0.001278498
1174.436,0.001382957
1172.508,0.001457233
1170.579,0.001478844
1168.651,0.001457545
1166.722,0.001417834
1164.794,0.001368571
1162.865,0.001302488
1160.937,0.001224241
1159.009,0.001147123
1157.08,0.001074561
1155.152,0.001007978
1153.223,0.000949914
1151.295,0.000904335
1149.366,0.000876814
1147.438,0.000856453
1145.509,0.000826341
1143.581,0.000792367
1141.652,0.000774344
1139.724,0.000782072
1137.795,0.000810495
1135.867,0.000851006
1133.938,0.000904309
1132.01,0.000966622
1130.082,0.001025206
1128.153,0.00107482
1126.225,0.001101575
1124.296,0.001087458
1122.368,0.001046302
1120.439,0.001013971
1118.511,0.001003593
1116.582,0.000998689
1114.654,0.000998741
1112.725,0.001020899
1110.797,0.001056655
1108.868,0.001090183
1106.94,0.001114344
1105.011,0.001110295
1103.083,0.001068488
1101.155,0.001008107
1099.226,0.000948669
1097.298,0.000898006
1095.369,0.000859747
1093.441,0.000833473
1091.512,0.000816149
1089.584,0.000800951
1087.655,0.000784976
1085.727,0.000765838
1083.798,0.000729561
1081.87,0.000677109
1079.941,0.000622434
1078.013,0.000564266
1076.084,0.000500923
1074.156,0.000437953
1072.228,0.000372711
1070.299,0.000306235
1068.371,0.000251322
1066.442,0.000212887
1064.514,0.000184684
1062.585,0.000168525
1060.657,0.000171166
1058.728,0.000190045
1056.8,0.000215658
1054.871,0.000240806
1052.943,0.000254741
1051.014,0.000246763
1049.086,0.000226328
1047.157,0.000205273
1045.229,0.00017663
1043.301,0.000142629
1041.372,0.00012238
1039.444,0.000116839
1037.515,0.000104074
1035.587,7.69E-05
1033.658,5.64E-05
1031.73,5.61E-05
1029.801,5.65E-05
1027.873,3.92E-05
1025.944,1.68E-05
1024.016,8.28E-06
1022.087,1.85E-05
1020.159,4.39E-05
1018.23,7.59E-05
1016.302,9.53E-05
1014.374,8.88E-05
1012.445,6.95E-05
1010.517,5.02E-05
1008.588,2.13E-05
1006.66,-2.16E-05
1004.731,-6.39E-05
1002.803,-8.94E-05
1000.874,-9.86E-05
998.946,-0.000100892
997.017,-0.000100374
995.089,-0.000101461
993.16,-0.000108811
991.232,-0.000113159
989.303,-9.80E-05
987.375,-6.46E-05
985.447,-3.20E-05
983.518,-9.73E-06
981.59,2.30E-06
979.661,5.95E-07
977.733,-7.20E-06
975.804,-7.61E-06
973.876,-2.43E-06
971.947,1.37E-06
970.019,1.42E-06
968.09,-1.24E-06
966.162,-2.38E-06
964.233,-3.93E-06
962.305,-4.04E-06
960.376,1.04E-05
958.448,3.60E-05
956.52,5.17E-05
954.591,5.32E-05
952.663,5.01E-05
950.734,4.53E-05
948.806,4.52E-05
946.877,5.92E-05
944.949,8.67E-05
943.02,0.000115104
941.092,0.000129371
939.163,0.000137839
937.235,0.000160316
935.306,0.00018528
933.378,0.000194292
931.449,0.000188206
929.521,0.000172771
927.593,0.000160238
925.664,0.000157881
923.736,0.000153246
921.807,0.000134654
919.879,0.000115778
917.95,0.000114612
916.022,0.000119895
914.093,0.000114431
912.165,0.000102831
910.236,9.38E-05
908.308,9.33E-05
906.379,0.000100372
904.451,0.000102728
902.522,9.61E-05
900.594,8.91E-05
898.666,8.78E-05
896.737,8.97E-05
894.809,9.51E-05
892.88,0.000107725
890.952,0.000109537
889.023,0.000100061
887.095,0.000111195
885.166,0.000133437
883.238,0.000128646
881.309,0.000102313
879.381,9.49E-05
877.452,0.000120697
875.524,0.000149051
873.595,0.000150449
871.667,0.000125384
869.739,9.82E-05
867.81,8.73E-05
865.882,8.74E-05
863.953,0.000100009
862.025,0.00013424
860.096,0.000182768
858.168,0.000228374
856.239,0.0002507
854.311,0.000234098
852.382,0.000194862
850.454,0.000179116
848.525,0.000193929
846.597,0.000211255
844.668,0.000232777
842.74,0.000254974
840.812,0.000251218
838.883,0.000232544
836.955,0.000254352
835.026,0.000327996
833.098,0.000379525
831.169,0.000373436
829.241,0.000373022
827.312,0.000416912
825.384,0.000459356
823.455,0.0004691
821.527,0.000467027
819.598,0.000437408
817.67,0.000348151
815.741,0.000263107
813.813,0.000262097
811.885,0.000298205
809.956,0.000315276
808.028,0.00033784
806.099,0.000360871
804.171,0.000371649
802.242,0.000394448
800.314,0.000428598
798.385,0.000455236
796.457,0.000443861
794.528,0.000371415
792.6,0.00030222
790.671,0.000299086
788.743,0.000325819
786.814,0.000356389
784.886,0.000377763
782.958,0.000381546
781.029,0.000427614
779.101,0.000503722
777.172,0.000510409
775.244,0.000442435
773.315,0.00037341
771.387,0.000344498
769.458,0.000358462
767.53,0.000403517
765.601,0.000452567
763.673,0.000474231
761.744,0.000478222
759.816,0.000512301
757.887,0.000585651
755.959,0.000654865
754.031,0.000649758
752.102,0.000575256
750.174,0.000562763
748.245,0.00061095
746.317,0.000603433
744.388,0.000583344
742.46,0.000605688
740.531,0.000610924
738.603,0.000598093
736.674,0.000602422
734.746,0.000556724
732.817,0.000447229
730.889,0.000380613
728.96,0.00039507
727.032,0.000435128
725.104,0.000468815
723.175,0.000594049
721.247,0.000812362
719.318,0.000901508
717.39,0.000815915
715.461,0.000681076
713.533,0.000544672
711.604,0.00042624
709.676,0.000372037
707.747,0.000532697
705.819,0.000866802
703.89,0.000961978
701.962,0.000820739
700.033,0.000967556
698.105,0.001426976
696.177,0.001756727
694.248,0.001919227
692.32,0.002212431
690.391,0.002594233
688.463,0.002689997
686.534,0.002541763
684.606,0.002582254
682.677,0.002813111
680.749,0.003036818
678.82,0.003172338
676.892,0.003027199
674.963,0.002775621
673.035,0.003178779
671.106,0.00571131
669.178,0.01024612
667.25,0.01105381
665.321,0.006295342
663.393,0.002733809
661.464,0.002069614
659.536,0.002236498
657.607,0.002662596
655.679,0.003555038
653.75,0.004204024
651.822,0.004023789
649.893,0.003282679
647.965,0.002530671
646.036,0.002455222
644.108,0.002718623
642.179,0.001988758
640.251,0.000855338
638.323,0.000598456
636.394,0.000486022
634.466,0.000260284
632.537,0.000602059
630.609,0.000635577
628.68,-0.000692415
626.752,-0.002168326
624.823,-0.001552864
622.895,0.000281834
620.966,0.000504215
619.038,-0.000823687
617.109,-0.001816291
615.181,-0.001724202
613.252,-0.002074509
611.324,-0.002638653
609.396,-0.001454992
607.467,-0.000427219
605.539,-0.000364166
603.61,0.00093492
601.682,0.002139508
599.753,0.001109439
597.825,-0.001062044
595.896,-0.00325443
593.968,-0.004122899
592.039,-0.001780097
590.111,0.002141251
588.182,0.004702915
586.254,0.00614372
584.325,0.007882373
582.397,0.009645139
580.469,0.01127825
578.54,0.01320987
576.612,0.01383564
574.683,0.01160818
572.755,0.005637771
570.826,-0.00019643
568.898,0.000548922
566.969,0.004340956
565.041,0.005494689
563.112,0.005731821
561.184,0.007203973
559.255,0.009024316
557.327,0.009969113
555.398,0.01097209
553.47,0.01153073
551.542,0.01091995
549.613,0.0109109
547.685,0.01058864
545.756,0.008908438
543.828,0.007414049
541.899,0.004730653
539.971,0.003301954
538.042,0.006343355
536.114,0.006883316
534.185,0.002441711
532.257,-2.71E-05
530.328,0.001590132
528.4,0.003964512
526.471,0.006105653
524.543,0.01023754
522.615,0.01391296
520.686,0.01296608
518.758,0.00969212
516.829,0.006771452
514.901,0.004711445
512.972,0.003008978
511.044,0.000168162
509.115,-0.000809941
507.187,0.004199058
505.258,0.01151976
503.33,0.01450751
501.401,0.01325248
499.473,0.01143135
497.544,0.01090458
495.616,0.01139646
493.688,0.01070902
491.759,0.008913353
489.831,0.009808076
487.902,0.01064453
485.974,0.004981142
484.045,-0.001817992
482.117,-0.001217934
480.188,0.004375365
478.26,0.01004299
476.331,0.01296982
474.403,0.01111635
472.474,0.007096552
470.546,0.005112163
468.617,0.005619572
466.689,0.006429886
464.76,0.00695412
462.832,0.00840686
460.904,0.00784207
458.975,0.004240749
457.047,0.002816264
455.118,0.002788308
453.19,0.000203537
451.261,-0.002223855
449.333,-0.00073299
447.404,0.004091411
445.476,0.008813169
443.547,0.01026139
441.619,0.007671965
439.69,0.005307052
437.762,0.007920703
435.833,0.01046449
433.905,0.006205292
431.977,0.000602214
430.048,0.001993075
428.12,0.005699507
426.191,0.00361272
424.263,0.00131451
422.334,0.005189044
420.406,0.008195512
418.477,0.004643073
416.549,0.000498202
414.62,0.001696796
412.692,0.005951998
410.763,0.008201922
408.835,0.007060611
406.906,0.004449658
404.978,0.003805084
403.05,0.006664139
401.121,0.01004477
399.193,0.009934152
