Wavenumbers [1/cm],absorbance
3997.712,-0.00031228
3995.783,-0.000321333
3993.855,-0.000317039
3991.926,-0.000309124
3989.998,-0.000296345
3988.069,-0.000284083
3986.141,-0.000282738
3984.212,-0.000284497
3982.284,-0.000285222
3980.355,-0.000298828
3978.427,-0.000318798
3976.499,-0.000326041
3974.57,-0.000324903
3972.642,-0.000322471
3970.713,-0.000319626
3968.785,-0.000328783
3966.856,-0.000344664
3964.928,-0.00034394
3962.999,-0.000340888
3961.071,-0.000350148
3959.142,-0.000353096
3957.214,-0.00034006
3955.285,-0.000313366
3953.357,-0.000288843
3951.428,-0.000279634
3949.5,-0.000272494
3947.572,-0.000268613
3945.643,-0.000291792
3943.715,-0.000335301
3941.786,-0.000357545
3939.858,-0.00033856
3937.929,-0.000307934
3936.001,-0.000298311
3934.072,-0.00030364
3932.144,-0.000302553
3930.215,-0.000299346
3928.287,-0.000308917
3926.358,-0.000321799
3924.43,-0.000322109
3922.501,-0.000318488
3920.573,-0.00032004
3918.645,-0.000320712
3916.716,-0.000308503
3914.788,-0.000285066
3912.859,-0.000278289
3910.931,-0.000294069
3909.002,-0.000304416
3907.074,-0.000307261
3905.145,-0.000320505
3903.217,-0.000342543
3901.288,-0.000355735
3899.36,-0.000343475
3897.431,-0.000313573
3895.503,-0.000297328
3893.574,-0.000302864
3891.646,-0.000315177
3889.718,-0.000327231
3887.789,-0.000333697
3885.861,-0.000340164
3883.932,-0.000355373
3882.004,-0.000365511
3880.075,-0.000362097
3878.147,-0.000359976
3876.218,-0.00036396
3874.29,-0.000359718
3872.361,-0.000353045
3870.433,-0.000359252
3868.504,-0.000369184
3866.576,-0.000371408
3864.647,-0.000364529
3862.719,-0.00035082
3860.791,-0.000347458
3858.862,-0.000371512
3856.934,-0.000403271
3855.005,-0.000401047
3853.077,-0.000363132
3851.148,-0.000336129
3849.22,-0.000340888
3847.291,-0.000344406
3845.363,-0.0003308
3843.434,-0.000328421
3841.506,-0.000345854
3839.577,-0.000356873
3837.649,-0.000352424
3835.72,-0.000347923
3833.792,-0.000348234
3831.864,-0.000348441
3829.935,-0.000354752
3828.007,-0.000367684
3826.078,-0.000363339
3824.15,-0.000336801
3822.221,-0.000324644
3820.293,-0.000337732
3818.364,-0.000353459
3816.436,-0.000367012
3814.507,-0.000380512
3812.579,-0.00038703
3810.65,-0.000388013
3808.722,-0.00039153
3806.793,-0.000390702
3804.865,-0.000380099
3802.937,-0.000367374
3801.008,-0.000359045
3799.08,-0.00036427
3797.151,-0.000369132
3795.223,-0.000354545
3793.294,-0.000344509
3791.366,-0.000361063
3789.437,-0.000377357
3787.509,-0.000362873
3785.58,-0.000341043
3783.652,-0.000339698
3781.723,-0.000346734
3779.795,-0.000358994
3777.866,-0.000380719
3775.938,-0.000401306
3774.01,-0.00040922
3772.081,-0.000402185
3770.153,-0.000387857
3768.224,-0.000387599
3766.296,-0.000406634
3764.367,-0.000415013
3762.439,-0.000410616
3760.51,-0.000419254
3758.582,-0.000422926
3756.653,-0.000402754
3754.725,-0.000396444
3752.796,-0.000424891
3750.868,-0.000432494
3748.939,-0.000372288
3747.011,-0.000281186
3745.083,-0.000199483
3743.154,-9.64E-05
3741.226,6.02E-05
3739.297,0.000242309
3737.369,0.000427018
3735.44,0.00062189
3733.512,0.000814152
3731.583,0.000971784
3729.655,0.001066257
3727.726,0.001075157
3725.798,0.000999753
3723.869,0.000870874
3721.941,0.000717478
3720.012,0.000518132
3718.084,0.000233995
3716.156,-6.34E-05
3714.227,-0.000210143
3712.299,-0.000139917
3710.37,5.65E-05
3708.442,0.000259636
3706.513,0.000413492
3704.585,0.000489909
3702.656,0.00048172
3700.728,0.000430853
3698.799,0.000385095
3696.871,0.000336337
3694.942,0.000246297
3693.014,0.00011469
3691.085,-2.43E-05
3689.157,-0.000141573
3687.229,-0.000237517
3685.3,-0.000336077
3683.372,-0.000435546
3681.443,-0.000513274
3679.515,-0.000574289
3677.586,-0.000654939
3675.658,-0.000759348
3673.729,-0.000849781
3671.801,-0.000923922
3669.872,-0.000991129
3667.944,-0.001035291
3666.015,-0.001070204
3664.087,-0.001129178
3662.158,-0.001207866
3660.23,-0.001271158
3658.302,-0.001305691
3656.373,-0.001314775
3654.445,-0.001294903
3652.516,-0.001281017
3650.588,-0.001307291
3648.659,-0.001345898
3646.731,-0.00139183
3644.802,-0.001439718
3642.874,-0.001426302
3640.945,-0.00135493
3639.017,-0.001293303
3637.088,-0.001236416
3635.16,-0.001130056
3633.231,-0.001004714
3631.303,-0.000945826
3629.375,-0.00093286
3627.446,-0.000889876
3625.518,-0.000835158
3623.589,-0.000841359
3621.661,-0.000948306
3619.732,-0.00113713
3617.804,-0.001337176
3615.875,-0.001487033
3613.947,-0.001575355
3612.018,-0.001607078
3610.09,-0.001589798
3608.161,-0.0015378
3606.233,-0.001459687
3604.304,-0.001390747
3602.376,-0.001362569
3600.448,-0.001341563
3598.519,-0.001295884
3596.591,-0.00126326
3594.662,-0.001292683
3592.734,-0.001376709
3590.805,-0.001455817
3588.877,-0.001512727
3586.948,-0.001589025
3585.02,-0.001681606
3583.091,-0.001772776
3581.163,-0.00184279
3579.234,-0.001864596
3577.306,-0.001902587
3575.377,-0.001994895
3573.449,-0.00205328
3571.521,-0.002043232
3569.592,-0.00203978
3567.664,-0.002086205
3565.735,-0.002142826
3563.807,-0.002167914
3561.878,-0.002163639
3559.95,-0.002148699
3558.021,-0.002133604
3556.093,-0.002112945
3554.164,-0.002104599
3552.236,-0.002150966
3550.307,-0.002225143
3548.379,-0.002260939
3546.45,-0.002265522
3544.522,-0.002261505
3542.594,-0.002266141
3540.665,-0.002329433
3538.737,-0.002450532
3536.808,-0.002562539
3534.88,-0.002610093
3532.951,-0.00257659
3531.023,-0.002500774
3529.094,-0.002473028
3527.166,-0.002532172
3525.237,-0.002608703
3523.309,-0.002656972
3521.38,-0.002669167
3519.452,-0.00258925
3517.523,-0.002472822
3515.595,-0.002491766
3513.667,-0.002616731
3511.738,-0.002684345
3509.81,-0.002708373
3507.881,-0.002778237
3505.953,-0.002873137
3504.024,-0.00295768
3502.096,-0.003063645
3500.167,-0.003205097
3498.239,-0.003298927
3496.31,-0.003254738
3494.382,-0.003147175
3492.453,-0.003134839
3490.525,-0.003234646
3488.596,-0.003328829
3486.668,-0.003356726
3484.74,-0.003388782
3482.811,-0.003461309
3480.883,-0.003514927
3478.954,-0.003502448
3477.026,-0.003443127
3475.097,-0.003449496
3473.169,-0.003612028
3471.24,-0.003836545
3469.312,-0.003974718
3467.383,-0.004034889
3465.455,-0.004081051
3463.526,-0.004128181
3461.598,-0.00421971
3459.669,-0.004313578
3457.741,-0.004341668
3455.813,-0.004384158
3453.884,-0.00444458
3451.956,-0.004473788
3450.027,-0.004548082
3448.099,-0.004671381
3446.17,-0.004724235
3444.242,-0.004700626
3442.313,-0.004754705
3440.385,-0.004943776
3438.456,-0.00511808
3436.528,-0.005169908
3434.599,-0.005173335
3432.671,-0.005236256
3430.742,-0.005398018
3428.814,-0.00561727
3426.885,-0.005731273
3424.957,-0.00568217
3423.029,-0.00564645
3421.1,-0.005669957
3419.172,-0.005673892
3417.243,-0.005704295
3415.315,-0.005764943
3413.386,-0.005797996
3411.458,-0.00585817
3409.529,-0.006039665
3407.601,-0.006297579
3405.672,-0.006438389
3403.744,-0.006423546
3401.815,-0.006460935
3399.887,-0.006582163
3397.958,-0.006575534
3396.03,-0.006517193
3394.102,-0.006610055
3392.173,-0.0067552
3390.245,-0.006907837
3388.316,-0.007070913
3386.388,-0.007124851
3384.459,-0.00714074
3382.531,-0.007188304
3380.602,-0.007186827
3378.674,-0.00722517
3376.745,-0.00738884
3374.817,-0.007519426
3372.888,-0.00751566
3370.96,-0.007411794
3369.031,-0.007266157
3367.103,-0.007267939
3365.175,-0.007459837
3363.246,-0.007591064
3361.318,-0.007535555
3359.389,-0.007384106
3357.461,-0.007283925
3355.532,-0.007365528
3353.604,-0.007513167
3351.675,-0.007423653
3349.747,-0.007096583
3347.818,-0.006805303
3345.89,-0.006662317
3343.961,-0.006653344
3342.033,-0.006697393
3340.104,-0.006652579
3338.176,-0.006524231
3336.248,-0.006380336
3334.319,-0.006283802
3332.391,-0.006318397
3330.462,-0.006439002
3328.534,-0.006484653
3326.605,-0.006314162
3324.677,-0.006069634
3322.748,-0.006016638
3320.82,-0.005997898
3318.891,-0.005711347
3316.963,-0.00529523
3315.034,-0.005130564
3313.106,-0.005275027
3311.177,-0.005364934
3309.249,-0.005156606
3307.321,-0.004846563
3305.392,-0.004739445
3303.464,-0.004779131
3301.535,-0.004658884
3299.607,-0.004384619
3297.678,-0.004246063
3295.75,-0.00427267
3293.821,-0.004333825
3291.893,-0.004495975
3289.964,-0.004673891
3288.036,-0.004665696
3286.107,-0.004611094
3284.179,-0.004615857
3282.25,-0.004552488
3280.322,-0.004451497
3278.394,-0.004397586
3276.465,-0.004287793
3274.537,-0.00412654
3272.608,-0.004229298
3270.68,-0.004579179
3268.751,-0.004686849
3266.823,-0.004596289
3264.894,-0.00475153
3262.966,-0.005047466
3261.037,-0.005222547
3259.109,-0.005266128
3257.18,-0.005192827
3255.252,-0.005067167
3253.323,-0.004940244
3251.395,-0.004909019
3249.467,-0.005040967
3247.538,-0.005205155
3245.61,-0.005372196
3243.681,-0.005560793
3241.753,-0.005690499
3239.824,-0.005776029
3237.896,-0.005821954
3235.967,-0.005746397
3234.039,-0.005576127
3232.11,-0.005520463
3230.182,-0.005751864
3228.253,-0.006103634
3226.325,-0.00618306
3224.396,-0.00590894
3222.468,-0.005688557
3220.54,-0.00574047
3218.611,-0.005863278
3216.683,-0.005997336
3214.754,-0.00609077
3212.826,-0.006060955
3210.897,-0.006030577
3208.969,-0.005906794
3207.04,-0.005603471
3205.112,-0.00543023
3203.183,-0.005531504
3201.255,-0.005647268
3199.326,-0.005591511
3197.398,-0.005506048
3195.469,-0.005466837
3193.541,-0.005354655
3191.613,-0.005243673
3189.684,-0.005247253
3187.756,-0.005237688
3185.827,-0.005163359
3183.899,-0.005108308
3181.97,-0.00504066
3180.042,-0.004920997
3178.113,-0.004802173
3176.185,-0.004755678
3174.256,-0.004785121
3172.328,-0.004739752
3170.399,-0.004569343
3168.471,-0.004468562
3166.542,-0.004490339
3164.614,-0.004462822
3162.686,-0.004314603
3160.757,-0.004138386
3158.829,-0.004040429
3156.9,-0.004043763
3154.972,-0.004070845
3153.043,-0.004026272
3151.115,-0.003914795
3149.186,-0.0038504
3147.258,-0.00386015
3145.329,-0.003831054
3143.401,-0.003739443
3141.472,-0.003638931
3139.544,-0.003539166
3137.615,-0.003493152
3135.687,-0.003511897
3133.759,-0.00343948
3131.83,-0.003224317
3129.902,-0.003055317
3127.973,-0.003023751
3126.045,-0.003002568
3124.116,-0.002900085
3122.188,-0.002766096
3120.259,-0.00264915
3118.331,-0.002526562
3116.402,-0.002436168
3114.474,-0.002413413
3112.545,-0.002361976
3110.617,-0.002243788
3108.688,-0.002101868
3106.76,-0.001928617
3104.832,-0.001768393
3102.903,-0.001683153
3100.975,-0.0016029
3099.046,-0.001465157
3097.118,-0.001353072
3095.189,-0.001341305
3093.261,-0.001376658
3091.332,-0.001358233
3089.404,-0.001235383
3087.475,-0.001057344
3085.547,-0.000931413
3083.618,-0.000871741
3081.69,-0.000790717
3079.761,-0.000657368
3077.833,-0.000501898
3075.905,-0.000372081
3073.976,-0.00032423
3072.048,-0.000320091
3070.119,-0.000268199
3068.191,-0.000148612
3066.262,-1.44E-05
3064.334,6.93E-05
3062.405,0.000105446
3060.477,0.000144675
3058.548,0.000207759
3056.62,0.000260077
3054.691,0.00026909
3052.763,0.000279969
3050.834,0.000316882
3048.906,0.000339394
3046.978,0.000353099
3045.049,0.00038481
3043.121,0.000425023
3041.192,0.000461144
3039.264,0.00048356
3037.335,0.000499913
3035.407,0.000526529
3033.478,0.000533164
3031.55,0.000516706
3029.621,0.000520335
3027.693,0.000523834
3025.764,0.000507895
3023.836,0.000500172
3021.907,0.000518547
3019.979,0.000587102
3018.051,0.000685276
3016.122,0.000727617
3014.194,0.000689736
3012.265,0.000645506
3010.337,0.000638247
3008.408,0.000638118
3006.48,0.000631714
3004.551,0.000645376
3002.623,0.000705007
3000.694,0.000784847
2998.766,0.000836637
2996.837,0.000871549
2994.909,0.00092584
2992.98,0.001002581
2991.052,0.001086809
2989.124,0.001172222
2987.195,0.001264868
2985.267,0.001369272
2983.338,0.001472272
2981.41,0.001565684
2979.481,0.001665691
2977.553,0.001773388
2975.624,0.001874274
2973.696,0.001975574
2971.767,0.002096665
2969.839,0.002235405
2967.91,0.002366798
2965.982,0.002498126
2964.053,0.002637958
2962.125,0.002734747
2960.197,0.002766841
2958.268,0.002766685
2956.34,0.002731986
2954.411,0.002660851
2952.483,0.002584077
2950.554,0.002512289
2948.626,0.00244684
2946.697,0.002398448
2944.769,0.002369453
2942.84,0.002351416
2940.912,0.002347252
2938.983,0.002360707
2937.055,0.002361723
2935.126,0.002327524
2933.198,0.002268894
2931.27,0.002204313
2929.341,0.002152255
2927.413,0.002096067
2925.484,0.00200899
2923.556,0.001922295
2921.627,0.001863849
2919.699,0.001806763
2917.77,0.001743264
2915.842,0.001699551
2913.913,0.001671433
2911.985,0.0016422
2910.056,0.001616997
2908.128,0.001597666
2906.199,0.00156888
2904.271,0.001526301
2902.343,0.001492558
2900.414,0.001476792
2898.486,0.001460792
2896.557,0.001436715
2894.629,0.001407836
2892.7,0.001378932
2890.772,0.001360054
2888.843,0.001355068
2886.915,0.001365403
2884.986,0.001396097
2883.058,0.001438741
2881.129,0.001477311
2879.201,0.001510715
2877.272,0.001545914
2875.344,0.001588287
2873.416,0.001630508
2871.487,0.001649242
2869.559,0.001619517
2867.63,0.001531964
2865.702,0.001418406
2863.773,0.001331594
2861.845,0.001279874
2859.916,0.001226213
2857.988,0.001149848
2856.059,0.001064752
2854.131,0.00098953
2852.202,0.000944103
2850.274,0.000936191
2848.345,0.000936995
2846.417,0.000921041
2844.489,0.00089881
2842.56,0.000886333
2840.632,0.000888253
2838.703,0.000899562
2836.775,0.000908486
2834.846,0.000903635
2832.918,0.00088457
2830.989,0.000863352
2829.061,0.000848672
2827.132,0.00084128
2825.204,0.00083809
2823.275,0.000839283
2821.347,0.000849683
2819.418,0.000859384
2817.49,0.000849631
2815.562,0.00082756
2813.633,0.000811403
2811.705,0.000795116
2809.776,0.000776833
2807.848,0.000765709
2805.919,0.000755855
2803.991,0.000743693
2802.062,0.000731636
2800.134,0.000718541
2798.205,0.000707185
2796.277,0.00070244
2794.348,0.000699562
2792.42,0.000686261
2790.491,0.000670913
2788.563,0.000667776
2786.635,0.000664017
2784.706,0.000646621
2782.778,0.000629304
2780.849,0.000629589
2778.921,0.00063454
2776.992,0.00062456
2775.064,0.000609447
2773.135,0.000598274
2771.207,0.000581711
2769.278,0.000559756
2767.35,0.00054335
2765.421,0.000529536
2763.493,0.000514037
2761.564,0.00050888
2759.636,0.000512067
2757.708,0.000509735
2755.779,0.00050805
2753.851,0.000506573
2751.922,0.000493589
2749.994,0.000481176
2748.065,0.000484104
2746.137,0.000491205
2744.208,0.000485193
2742.28,0.000462777
2740.351,0.000437046
2738.423,0.000419322
2736.494,0.000405071
2734.566,0.000387427
2732.637,0.000376364
2730.709,0.000382737
2728.781,0.000388463
2726.852,0.000376027
2724.924,0.000356622
2722.995,0.000342607
2721.067,0.000325845
2719.138,0.000302738
2717.21,0.000294423
2715.281,0.00030779
2713.353,0.000323643
2711.424,0.00033183
2709.496,0.000330819
2707.567,0.000323618
2705.639,0.000315717
2703.71,0.000308515
2701.782,0.000303256
2699.854,0.000298568
2697.925,0.000295252
2695.997,0.000297635
2694.068,0.00029792
2692.14,0.000284243
2690.211,0.000267536
2688.283,0.000266215
2686.354,0.000273261
2684.426,0.000276447
2682.497,0.000282534
2680.569,0.000295175
2678.64,0.000302013
2676.712,0.0002952
2674.783,0.000282741
2672.855,0.00026878
2670.927,0.00025039
2668.998,0.000237672
2667.07,0.000237828
2665.141,0.000239226
2663.213,0.000245209
2661.284,0.000258263
2659.356,0.000260491
2657.427,0.000251451
2655.499,0.000244458
2653.57,0.000241065
2651.642,0.000237931
2649.713,0.000235704
2647.785,0.000237646
2645.856,0.000239952
2643.928,0.00023516
2642,0.000226302
2640.071,0.000218973
2638.143,0.000202217
2636.214,0.000179064
2634.286,0.000184166
2632.357,0.000207862
2630.429,0.000197917
2628.5,0.000162879
2626.572,0.000155344
2624.643,0.000177459
2622.715,0.000188646
2620.786,0.000176475
2618.858,0.000161274
2616.929,0.000147109
2615.001,0.000127585
2613.073,0.000138305
2611.144,0.000193644
2609.216,0.000212602
2607.287,0.000158917
2605.359,0.000109382
2603.43,0.000101433
2601.502,0.00011078
2599.573,0.000133023
2597.645,0.000164795
2595.716,0.000165754
2593.788,0.00011658
2591.859,6.87E-05
2589.931,5.71E-05
2588.002,5.57E-05
2586.074,5.13E-05
2584.146,5.90E-05
2582.217,7.34E-05
2580.289,6.89E-05
2578.36,5.20E-05
2576.432,5.28E-05
2574.503,7.24E-05
2572.575,7.66E-05
2570.646,5.82E-05
2568.718,6.21E-05
2566.789,7.78E-05
2564.861,5.20E-05
2562.932,3.82E-05
2561.004,8.35E-05
2559.075,8.67E-05
2557.147,2.25E-05
2555.219,6.55E-06
2553.29,3.13E-05
2551.362,8.62E-06
2549.433,-3.98E-05
2547.505,-6.41E-05
2545.576,-7.57E-05
2543.648,-0.000101461
2541.719,-0.000125581
2539.791,-0.000118645
2537.862,-9.56E-05
2535.934,-9.70E-05
2534.005,-0.000126202
2532.077,-0.000143488
2530.148,-0.000121181
2528.22,-5.40E-05
2526.292,3.49E-05
2524.363,7.69E-05
2522.435,3.34E-05
2520.506,-2.51E-05
2518.578,-5.87E-05
2516.649,-0.000116161
2514.721,-0.00016745
2512.792,-0.00014442
2510.864,-7.01E-05
2508.935,-3.00E-05
2507.007,-5.17E-05
2505.078,-6.89E-05
2503.15,-7.07E-05
2501.221,-8.01E-05
2499.293,-5.60E-05
2497.365,5.75E-06
2495.436,1.82E-05
2493.508,-4.89E-05
2491.579,-9.31E-05
2489.651,-8.19E-05
2487.722,-7.50E-05
2485.794,-6.16E-05
2483.865,-1.93E-05
2481.937,-2.64E-06
2480.008,-5.61E-05
2478.08,-0.000127082
2476.151,-0.000147266
2474.223,-0.000133603
2472.294,-0.000143954
2470.366,-0.000161136
2468.438,-0.000145196
2466.509,-0.00014059
2464.581,-0.000154564
2462.652,-0.000137485
2460.724,-9.72E-05
2458.795,-8.11E-05
2456.867,-0.000124494
2454.938,-0.000179094
2453.01,-0.000155961
2451.081,-0.000101565
2449.153,-0.000114246
2447.224,-0.000151251
2445.296,-0.000178628
2443.367,-0.000249469
2441.439,-0.000336594
2439.51,-0.000365822
2437.582,-0.000343061
2435.654,-0.00031647
2433.725,-0.000298673
2431.797,-0.000297432
2429.868,-0.000308658
2427.94,-0.000289361
2426.011,-0.000239069
2424.083,-0.000208901
2422.154,-0.000233791
2420.226,-0.000308762
2418.297,-0.000382944
2416.369,-0.000380668
2414.44,-0.000288636
2412.512,-0.00019969
2410.583,-0.000192601
2408.655,-0.000232497
2406.727,-0.000241863
2404.798,-0.00020916
2402.87,-0.0001911
2400.941,-0.000220906
2399.013,-0.000252729
2397.084,-0.000252211
2395.156,-0.000239638
2393.227,-0.000226909
2391.299,-0.000219458
2389.37,-0.000161188
2387.442,0.000110081
2385.513,0.000785184
2383.585,0.002018456
2381.656,0.003974282
2379.728,0.006802821
2377.8,0.01042705
2375.871,0.01452357
2373.943,0.01869183
2372.014,0.0226032
2370.086,0.02611814
2368.157,0.02924221
2366.229,0.03196015
2364.3,0.0341123
2362.372,0.0355242
2360.443,0.03604563
2358.515,0.03550661
2356.586,0.03379315
2354.658,0.03069085
2352.729,0.02584926
2350.801,0.02045616
2348.873,0.0178346
2346.944,0.0197576
2345.016,0.02386653
2343.087,0.02646026
2341.159,0.02702821
2339.23,0.02674362
2337.302,0.02611416
2335.373,0.02543524
2333.445,0.02498484
2331.516,0.02462046
2329.588,0.02381301
2327.659,0.02253673
2325.731,0.0213653
2323.802,0.02045309
2321.874,0.01931027
2319.946,0.01758586
2318.017,0.01551326
2316.089,0.01359321
2314.16,0.01204581
2312.232,0.01061256
2310.303,0.009101312
2308.375,0.007624411
2306.446,0.006309445
2304.518,0.005203715
2302.589,0.004312274
2300.661,0.003584452
2298.732,0.002944652
2296.804,0.002385382
2294.875,0.001912076
2292.947,0.001490844
2291.019,0.001103158
2289.09,0.00074193
2287.162,0.000408362
2285.233,0.000154308
2283.305,-1.48E-05
2281.376,-0.000162275
2279.448,-0.000170452
2277.519,1.99E-05
2275.591,0.000235626
2273.662,0.000419789
2271.734,0.000513571
2269.805,0.000462077
2267.877,0.000399501
2265.948,0.000392842
2264.02,0.0003038
2262.092,0.000105446
2260.163,1.54E-05
2258.235,7.45E-05
2256.306,1.57E-05
2254.378,-0.000290344
2252.449,-0.000558364
2250.521,-0.000443614
2248.592,-3.05E-05
2246.664,0.00020579
2244.735,2.14E-05
2242.807,-0.000259714
2240.878,-0.000284704
2238.95,-0.000204658
2237.021,-0.000426185
2235.093,-0.000796815
2233.165,-0.000791027
2231.236,-0.00064217
2229.308,-0.000877631
2227.379,-0.001245295
2225.451,-0.00125753
2223.522,-0.00097181
2221.594,-0.000645013
2219.665,-0.000427271
2217.737,-0.000512188
2215.808,-0.00064429
2213.88,-0.00034425
2211.951,-2.45E-05
2210.023,-0.000124804
2208.094,-0.000289205
2206.166,-0.000564672
2204.238,-0.001035652
2202.309,-0.001077021
2200.381,-0.000510016
2198.452,4.77E-05
2196.524,-5.55E-05
2194.595,-0.000777849
2192.667,-0.001514481
2190.738,-0.001814847
2188.81,-0.001341563
2186.881,-0.000188927
2184.953,0.000810028
2183.024,0.000880705
2181.096,4.42E-05
2179.167,-0.000764981
2177.239,-0.000614667
2175.311,0.000134395
2173.382,0.000186704
2171.454,-0.000659591
2169.525,-0.001412937
2167.597,-0.00161332
2165.668,-0.001316737
2163.74,-0.000773818
2161.811,-0.001053987
2159.883,-0.002160033
2157.954,-0.002040759
2156.026,-0.000820069
2154.097,-0.000179456
2152.169,-0.000352734
2150.24,-0.000875099
2148.312,-0.000817072
2146.384,-0.000140279
2144.455,0.000149077
2142.527,-0.000165069
2140.598,-0.000875047
2138.67,-0.001640914
2136.741,-0.001803195
2134.813,-0.00145365
2132.884,-0.001157991
2130.956,-0.00098834
2129.027,-0.000933945
2127.099,-0.001019796
2125.17,-0.001084768
2123.242,-0.001059927
2121.313,-0.000877941
2119.385,-0.000444804
2117.457,-9.96E-05
2115.528,-0.000214231
2113.6,-0.000590885
2111.671,-0.000786842
2109.743,-0.000682904
2107.814,-0.000561518
2105.886,-0.000581217
2103.957,-0.000678355
2102.029,-0.000764568
2100.1,-0.000703425
2098.172,-0.000666311
2096.243,-0.000824617
2094.315,-0.000851951
2092.386,-0.000623456
2090.458,-0.000434253
2088.53,-0.000411185
2086.601,-0.000481161
2084.673,-0.000604586
2082.744,-0.000765136
2080.816,-0.000883107
2078.887,-0.000905685
2076.959,-0.000793715
2075.03,-0.000635708
2073.102,-0.000685747
2071.173,-0.000708955
2069.245,-0.00022427
2067.316,0.000411963
2065.388,0.000489624
2063.459,0.000163863
2061.531,3.47E-05
2059.603,9.43E-05
2057.674,0.000193618
2055.746,0.000317711
2053.817,0.000214803
2051.889,2.03E-05
2049.96,-0.00010643
2048.032,-0.000500501
2046.103,-0.000976614
2044.175,-0.00077418
2042.246,0.00016912
2040.318,0.000743615
2038.389,0.000327866
2036.461,-6.81E-05
2034.532,7.36E-05
2032.604,-0.000183234
2030.676,-0.001500912
2028.747,-0.002766302
2026.819,-0.002203612
2024.89,-0.000123769
2022.962,0.00167871
2021.033,0.001888261
2019.105,0.000666972
2017.176,-8.27E-05
2015.248,0.000280591
2013.319,0.000459356
2011.391,0.000627282
2009.462,0.001276369
2007.534,0.001215518
2005.605,0.000216875
2003.677,-0.000580648
2001.749,-0.000776402
1999.82,-0.000391064
1997.892,0.000235704
1995.963,0.000338539
1994.035,-0.000127185
1992.106,-0.000547299
1990.178,-0.000755834
1988.249,-0.000905014
1986.321,-0.001027182
1984.392,-0.001253297
1982.464,-0.001387857
1980.535,-0.00092728
1978.607,-0.000304157
1976.678,-2.69E-06
1974.75,0.000306106
1972.822,0.000102417
1970.893,-0.000782707
1968.965,-0.001738022
1967.036,-0.002432101
1965.108,-0.0025717
1963.179,-0.001950934
1961.251,-0.000709989
1959.322,7.32E-05
1957.394,-0.000200259
1955.465,-0.00064889
1953.537,-0.000822343
1951.608,-0.001006832
1949.68,-0.001102739
1947.751,-0.00077816
1945.823,-0.000463474
1943.895,-0.000528374
1941.966,-0.000403996
1940.038,-0.000176713
1938.109,-0.000433736
1936.181,-0.000763534
1934.252,-0.000715158
1932.324,-0.000624542
1930.395,-0.000757177
1928.467,-0.000921081
1926.538,-0.000974186
1924.61,-0.000931671
1922.681,-0.00076679
1920.753,-0.000519428
1918.824,-0.000368253
1916.896,-0.000420495
1914.968,-0.000547816
1913.039,-0.000624852
1911.111,-0.00064186
1909.182,-0.000543421
1907.254,-0.000407306
1905.325,-0.000374202
1903.397,-0.000368046
1901.468,-0.000320402
1899.54,-0.000269855
1897.611,-0.000251746
1895.683,-0.000319678
1893.754,-0.000436477
1891.826,-0.000499157
1889.897,-0.000525633
1887.969,-0.000563689
1886.041,-0.000571186
1884.112,-0.00055128
1882.184,-0.000570773
1880.255,-0.000576253
1878.327,-0.000501329
1876.398,-0.000418116
1874.47,-0.000399754
1872.541,-0.000445528
1870.613,-0.00048928
1868.684,-0.000514308
1866.756,-0.000567722
1864.827,-0.000591661
1862.899,-0.000552728
1860.97,-0.00051648
1859.042,-0.000501432
1857.114,-0.00049895
1855.185,-0.000486022
1853.257,-0.000459699
1851.328,-0.000469732
1849.4,-0.000514826
1847.471,-0.000553814
1845.543,-0.000581992
1843.614,-0.000588765
1841.686,-0.00054947
1839.757,-0.00049352
1837.829,-0.000461767
1835.9,-0.000446148
1833.972,-0.000447752
1832.043,-0.000471645
1830.115,-0.000480333
1828.187,-0.000467508
1826.258,-0.000476868
1824.33,-0.000506707
1822.401,-0.000500398
1820.473,-0.00046156
1818.544,-0.000442425
1816.616,-0.000428667
1814.687,-0.00041703
1812.759,-0.000439322
1810.83,-0.000464146
1808.902,-0.000466577
1806.973,-0.000463422
1805.045,-0.000461664
1803.116,-0.000478885
1801.188,-0.000513791
1799.26,-0.00052765
1797.331,-0.000512964
1795.403,-0.000506086
1793.474,-0.000527908
1791.546,-0.000557123
1789.617,-0.000559139
1787.689,-0.000533027
1785.76,-0.000514619
1783.832,-0.000517721
1781.903,-0.000518859
1779.975,-0.000508982
1778.046,-0.000508258
1776.118,-0.000524495
1774.189,-0.000542593
1772.261,-0.000556657
1770.333,-0.000571445
1768.404,-0.000581165
1766.476,-0.000578632
1764.547,-0.000572014
1762.619,-0.000570721
1760.69,-0.000572944
1758.762,-0.000580648
1756.833,-0.000593108
1754.905,-0.000610686
1752.976,-0.000634312
1751.048,-0.000639017
1749.119,-0.000615236
1747.191,-0.000602104
1745.262,-0.000616373
1743.334,-0.000628781
1741.406,-0.00063819
1739.477,-0.000659746
1737.549,-0.000676133
1735.62,-0.000685282
1733.692,-0.000701926
1731.763,-0.000719086
1729.835,-0.00072596
1727.906,-0.000720016
1725.978,-0.00071309
1724.049,-0.000721309
1722.121,-0.000733248
1720.192,-0.000735367
1718.264,-0.000749632
1716.335,-0.000786428
1714.407,-0.00080622
1712.479,-0.000790666
1710.55,-0.000768392
1708.622,-0.000760485
1706.693,-0.000752836
1704.765,-0.000714538
1702.836,-0.000629918
1700.908,-0.000509189
1698.979,-0.000358011
1697.051,-0.000152752
1695.122,0.000124607
1693.194,0.00046174
1691.265,0.000849242
1689.337,0.001283847
1687.408,0.001743004
1685.48,0.002215605
1683.552,0.002712475
1681.623,0.003229031
1679.695,0.003771581
1677.766,0.0043625
1675.838,0.004999576
1673.909,0.005689698
1671.981,0.00646701
1670.052,0.007352332
1668.124,0.008321438
1666.195,0.009336058
1664.267,0.01042612
1662.338,0.01165255
1660.41,0.01297422
1658.481,0.01423657
1656.553,0.01526113
1654.625,0.01591406
1652.696,0.01614102
1650.768,0.01598828
1648.839,0.01557363
1646.911,0.01501761
1644.982,0.01441162
1643.054,0.01380739
1641.125,0.01322059
1639.197,0.01264831
1637.268,0.01208166
1635.34,0.01151401
1633.411,0.01094828
1631.483,0.01037333
1629.554,0.009774954
1627.626,0.009168381
1625.698,0.008557663
1623.769,0.007938867
1621.841,0.007348251
1619.912,0.006808869
1617.984,0.006305033
1616.055,0.00582311
1614.127,0.005345365
1612.198,0.004880185
1610.27,0.004472019
1608.341,0.004129198
1606.413,0.003835377
1604.484,0.003592596
1602.556,0.003410345
1600.627,0.003287948
1598.699,0.003216852
1596.771,0.003203265
1594.842,0.003251068
1592.914,0.00333336
1590.985,0.003425895
1589.057,0.003539927
1587.128,0.003699571
1585.2,0.003907566
1583.271,0.004146159
1581.343,0.00439835
1579.414,0.004663481
1577.486,0.004956555
1575.557,0.005285722
1573.629,0.005637744
1571.7,0.006009474
1569.772,0.006431042
1567.844,0.006930053
1565.915,0.007516465
1563.987,0.008199707
1562.058,0.008999182
1560.13,0.009946812
1558.201,0.01104372
1556.273,0.01222405
1554.344,0.0133966
1552.416,0.01446635
1550.487,0.01533009
1548.559,0.01590184
1546.63,0.01613967
1544.702,0.01604675
1542.773,0.01566406
1540.845,0.01506411
1538.917,0.01432782
1536.988,0.01352284
1535.06,0.01269352
1533.131,0.01186995
1531.203,0.01107522
1529.274,0.01032853
1527.346,0.009651676
1525.417,0.009048473
1523.489,0.008508217
1521.56,0.00803397
1519.632,0.00761519
1517.703,0.007202315
1515.775,0.006753942
1513.846,0.006267634
1511.918,0.0057676
1509.99,0.005285015
1508.061,0.004834244
1506.133,0.004423245
1504.204,0.004066927
1502.276,0.003775524
1500.347,0.003541832
1498.419,0.003324439
1496.49,0.003081578
1494.562,0.002811834
1492.633,0.002541295
1490.705,0.002304831
1488.776,0.002121897
1486.848,0.001984493
1484.919,0.001880149
1482.991,0.001810064
1481.063,0.001786644
1479.134,0.001821059
1477.206,0.001924089
1475.277,0.002093284
1473.349,0.00229437
1471.42,0.0024742
1469.492,0.002585015
1467.563,0.002620848
1465.635,0.002631031
1463.706,0.002674629
1461.778,0.00277239
1459.849,0.002896857
1457.921,0.003004495
1455.992,0.00306943
1454.064,0.003076077
1452.135,0.003025739
1450.207,0.002953097
1448.279,0.002894877
1446.35,0.002860298
1444.422,0.002839401
1442.493,0.002814205
1440.565,0.002762986
1438.636,0.002669498
1436.708,0.002540123
1434.779,0.002405476
1432.851,0.002297076
1430.922,0.002235223
1428.994,0.002227079
1427.065,0.002257236
1425.137,0.002305273
1423.208,0.002366928
1421.28,0.00243778
1419.352,0.002506041
1417.423,0.002569443
1415.495,0.002635275
1413.566,0.002715471
1411.638,0.002825279
1409.709,0.002973739
1407.781,0.003158127
1405.852,0.003360176
1403.924,0.003545643
1401.995,0.003688606
1400.067,0.003784037
1398.138,0.003828613
1396.21,0.003812944
1394.281,0.003739387
1392.353,0.003632793
1390.425,0.003521033
1388.496,0.003402779
1386.568,0.003241784
1384.639,0.003010047
1382.711,0.002729876
1380.782,0.002452462
1378.854,0.002213315
1376.925,0.002027533
1374.997,0.001900143
1373.068,0.001830782
1371.14,0.00180905
1369.211,0.001802603
1367.283,0.001776507
1365.354,0.001716183
1363.426,0.001632067
1361.498,0.001557786
1359.569,0.001518482
1357.641,0.001506507
1355.712,0.001503702
1353.784,0.001507572
1351.855,0.00153038
1349.927,0.001575375
1347.998,0.001628273
1346.07,0.001679775
1344.141,0.001736169
1342.213,0.001797197
1340.284,0.001850902
1338.356,0.001893149
1336.427,0.001928327
1334.499,0.001969203
1332.571,0.00202592
1330.642,0.002091073
1328.714,0.002158628
1326.785,0.002228692
1324.857,0.002301396
1322.928,0.002378692
1321,0.002452671
1319.071,0.002515778
1317.143,0.002573505
1315.214,0.002629624
1313.286,0.002680984
1311.357,0.002724302
1309.429,0.002763897
1307.5,0.002806259
1305.572,0.002832105
1303.644,0.002818087
1301.715,0.00278203
1299.787,0.002754441
1297.858,0.002739097
1295.93,0.0027255
1294.001,0.002701718
1292.073,0.002662336
1290.144,0.002616681
1288.216,0.002574468
1286.287,0.002534056
1284.359,0.002491435
1282.43,0.002444444
1280.502,0.002398839
1278.573,0.002364976
1276.645,0.002336763
1274.717,0.002306731
1272.788,0.002288593
1270.86,0.002291689
1268.931,0.002298091
1267.003,0.002288618
1265.074,0.002271886
1263.146,0.002265563
1261.217,0.002268243
1259.289,0.002269518
1257.36,0.002273526
1255.432,0.002290258
1253.503,0.002309775
1251.575,0.002318051
1249.646,0.002319613
1247.718,0.002320289
1245.79,0.002313679
1243.861,0.002292314
1241.933,0.00225656
1240.004,0.002215761
1238.076,0.002170699
1236.147,0.002106367
1234.219,0.002021005
1232.29,0.001926637
1230.362,0.001824829
1228.433,0.001717769
1226.505,0.001617179
1224.576,0.00152999
1222.648,0.001455831
1220.719,0.001393578
1218.791,0.001344525
1216.863,0.001306876
1214.934,0.001275668
1213.006,0.001247526
1211.077,0.001218815
1209.149,0.001189301
1207.22,0.001164175
1205.292,0.001145773
1203.363,0.001124621
1201.435,0.001094127
1199.506,0.001068073
1197.578,0.001063065
1195.649,0.001074846
1193.721,0.001089145
1191.792,0.001099577
1189.864,0.001106896
1187.936,0.001112605
1186.007,0.001124491
1184.079,0.001154416
1182.15,0.001206381
1180.222,0.00128164
1178.293,0.001380594
1176.365,0.00149513
1174.436,0.001605876
1172.508,0.001682659
1170.579,0.001704671
1168.651,0.001680139
1166.722,0.001634665
1164.794,0.001580908
1162.865,0.00151152
1160.937,0.00143043
1159.009,0.001357119
1157.08,0.001292155
1155.152,0.00122611
1153.223,0.001167316
1151.295,0.001127061
1149.366,0.001100589
1147.438,0.001074612
1145.509,0.001042513
1143.581,0.001017863
1141.652,0.001015424
1139.724,0.001028372
1137.795,0.00105144
1135.867,0.001091325
1133.938,0.001150679
1132.01,0.001220606
1130.082,0.001285145
1128.153,0.001336658
1126.225,0.001364442
1124.296,0.001351952
1122.368,0.001309784
1120.439,0.001270398
1118.511,0.001254458
1116.582,0.001255834
1114.654,0.001263025
1112.725,0.001286417
1110.797,0.001336969
1108.868,0.001398071
1106.94,0.001440299
1105.011,0.001446039
1103.083,0.001412978
1101.155,0.00135055
1099.226,0.001280965
1097.298,0.001229822
1095.369,0.001209107
1093.441,0.001208717
1091.512,0.00120594
1089.584,0.001188626
1087.655,0.001161242
1085.727,0.001127658
1083.798,0.001081697
1081.87,0.001021937
1079.941,0.000955622
1078.013,0.000884595
1076.084,0.00081244
1074.156,0.000745975
1072.228,0.000675372
1070.299,0.000596201
1068.371,0.000531116
1066.442,0.000489961
1064.514,0.000453189
1062.585,0.000415306
1060.657,0.000396132
1058.728,0.00040318
1056.8,0.000422224
1054.871,0.000439974
1052.943,0.000446763
1051.014,0.000436346
1049.086,0.00041984
1047.157,0.000402791
1045.229,0.00037113
1043.301,0.000328773
1041.372,0.000297894
1039.444,0.000278078
1037.515,0.000253109
1035.587,0.000220579
1033.658,0.000193644
1031.73,0.00018225
1029.801,0.000178598
1027.873,0.000169224
1025.944,0.000156587
1024.016,0.000154127
1022.087,0.0001671
1020.159,0.000192764
1018.23,0.000221511
1016.302,0.000231456
1014.374,0.00021861
1012.445,0.000201699
1010.517,0.000183544
1008.588,0.00015436
1006.66,0.000116865
1004.731,8.16E-05
1002.803,5.45E-05
1000.874,3.11E-05
998.946,1.08E-05
997.017,2.59E-06
995.089,1.42E-06
993.16,-8.08E-06
991.232,-1.92E-05
989.303,-1.35E-05
987.375,1.33E-05
985.447,5.34E-05
983.518,8.84E-05
981.59,0.000102469
979.661,0.000102754
977.733,0.000106663
975.804,0.000117331
973.876,0.000122587
971.947,0.000112256
970.019,9.23E-05
968.09,8.02E-05
966.162,8.57E-05
964.233,9.88E-05
962.305,0.000106404
960.376,0.000113654
958.448,0.000128802
956.52,0.000143846
954.591,0.000146954
952.663,0.00014061
950.734,0.000137166
948.806,0.000141179
946.877,0.000147005
944.949,0.000156043
943.02,0.000176811
941.092,0.000202424
939.163,0.00021975
937.235,0.000233295
935.306,0.000244096
933.378,0.00024293
931.449,0.000235419
929.521,0.000229151
927.593,0.000222107
925.664,0.000224075
923.736,0.000232233
921.807,0.000218662
919.879,0.00018818
917.95,0.0001707
916.022,0.000157778
914.093,0.000128931
912.165,9.77E-05
910.236,8.31E-05
908.308,8.30E-05
906.379,8.93E-05
904.451,9.59E-05
902.522,9.74E-05
900.594,9.68E-05
898.666,9.37E-05
896.737,8.29E-05
894.809,8.27E-05
892.88,0.000101718
890.952,0.0001041
889.023,7.57E-05
887.095,5.71E-05
885.166,7.33E-05
883.238,9.44E-05
881.309,8.96E-05
879.381,7.52E-05
877.452,7.69E-05
875.524,8.64E-05
873.595,7.95E-05
871.667,5.01E-05
869.739,2.66E-05
867.81,3.90E-05
865.882,6.64E-05
863.953,7.03E-05
862.025,5.89E-05
860.096,5.96E-05
858.168,7.74E-05
856.239,9.56E-05
854.311,8.50E-05
852.382,5.71E-05
850.454,6.44E-05
848.525,8.82E-05
846.597,7.32E-05
844.668,5.17E-05
842.74,7.24E-05
840.812,0.00010643
838.883,0.00011425
836.955,0.000120671
835.026,0.000165339
833.098,0.000215891
831.169,0.000222676
829.241,0.000219983
827.312,0.000258108
825.384,0.000302143
823.455,0.000312116
821.527,0.000310017
819.598,0.000297739
817.67,0.000241195
815.741,0.000166582
813.813,0.000149957
811.885,0.000187274
809.956,0.000200171
808.028,0.000154541
806.099,9.95E-05
804.171,0.000113913
802.242,0.000189061
800.314,0.000252228
798.385,0.000289528
796.457,0.00027567
794.528,0.000174015
792.6,8.77E-05
790.671,0.000109719
788.743,0.000151459
786.814,0.000157389
784.886,0.000173005
782.958,0.000188076
781.029,0.00020996
779.101,0.000259481
777.172,0.000270437
775.244,0.000234487
773.315,0.000227053
771.387,0.000237776
769.458,0.000210193
767.53,0.000169975
765.601,0.000192505
763.673,0.000258004
761.744,0.000268624
759.816,0.000252824
757.887,0.00031209
755.959,0.000416161
754.031,0.000436994
752.102,0.00035556
750.174,0.000309681
748.245,0.000336985
746.317,0.000364032
744.388,0.000428028
742.46,0.000535782
740.531,0.000550296
738.603,0.000426966
736.674,0.000309422
734.746,0.000281135
732.817,0.000283984
730.889,0.000273908
728.96,0.000221381
727.032,0.000129656
725.104,0.000106974
723.175,0.000300226
721.247,0.000666791
719.318,0.000872949
717.39,0.000746364
715.461,0.00048908
713.533,0.000298335
711.604,0.000263029
709.676,0.000371234
707.747,0.000544931
705.819,0.000765605
703.89,0.000968438
701.962,0.001108764
700.033,0.001250564
698.105,0.001444117
696.177,0.001722888
694.248,0.002090709
692.32,0.002549132
690.391,0.00298148
688.463,0.003101835
686.534,0.003046541
684.606,0.003306232
682.677,0.003704714
680.749,0.003790617
678.82,0.003694637
676.892,0.003496764
674.963,0.003148141
673.035,0.003496685
671.106,0.006846341
669.178,0.01306491
667.25,0.01427908
665.321,0.008094465
663.393,0.003430356
661.464,0.002385382
659.536,0.002560121
657.607,0.003041953
655.679,0.003548435
653.75,0.003874735
651.822,0.004149008
649.893,0.004045737
647.965,0.002914005
646.036,0.001466142
644.108,0.001028917
642.179,0.001232989
640.251,0.001575453
638.323,0.002122937
636.394,0.001615412
634.466,0.000143613
632.537,0.000437512
630.609,0.001916367
628.68,0.001281172
626.752,-0.000977286
624.823,-0.001975415
622.895,-0.001510921
620.966,-0.001463093
619.038,-0.002412949
617.109,-0.003062823
615.181,-0.002330308
613.252,-0.001447613
611.324,-0.000898142
609.396,0.000547004
607.467,0.000993811
605.539,-0.001036582
603.61,-0.002323253
601.682,-0.001350234
599.753,-0.001048255
597.825,-0.002717891
595.896,-0.004240834
593.968,-0.003047657
592.039,0.001291272
590.111,0.004555249
588.182,0.003075921
586.254,0.000504293
584.325,0.001720887
582.397,0.005523553
580.469,0.008472132
578.54,0.009676424
576.612,0.009100228
574.683,0.006466065
572.755,0.001550435
570.826,-0.00455633
568.898,-0.007484977
566.969,-0.003860919
565.041,0.00206977
563.112,0.005203139
561.184,0.005904133
559.255,0.00297155
557.327,-0.002463917
555.398,-0.002530783
553.47,0.004620206
551.542,0.01220829
549.613,0.01483474
547.685,0.01233666
545.756,0.008446766
543.828,0.007699262
541.899,0.007838749
539.971,0.005137098
538.042,0.001264141
536.114,-0.001416601
534.185,-0.000507483
532.257,0.002400895
530.328,0.002721384
528.4,0.000472676
526.471,6.38E-05
524.543,0.004827648
522.615,0.008774233
520.686,0.007482543
518.758,0.007760976
516.829,0.01078075
514.901,0.009939661
512.972,0.005158552
511.044,0.000105187
509.115,-0.004792751
507.187,-0.006910588
505.258,-0.001794998
503.33,0.005597571
501.401,0.005868211
499.473,0.001524145
497.544,0.001756597
495.616,0.005998293
493.688,0.008306688
491.759,0.008284682
489.831,0.00833099
487.902,0.006792277
485.974,0.002595717
484.045,0.000810962
482.117,0.004172608
480.188,0.009440039
478.26,0.01334526
476.331,0.01335517
474.403,0.01106568
472.474,0.008660139
470.546,0.004157815
468.617,0.000394163
466.689,0.001397084
464.76,0.004412078
462.832,0.006109275
460.904,0.004856128
458.975,0.002220965
457.047,0.00220949
455.118,0.005208116
453.19,0.008730203
451.261,0.009926843
449.333,0.007679264
447.404,0.004329948
445.476,0.003867657
443.547,0.006911537
441.619,0.008481371
439.69,0.007668435
437.762,0.008883972
435.833,0.01103602
433.905,0.01085232
431.977,0.008959463
430.048,0.007191419
428.12,0.005866165
426.191,0.004879976
424.263,0.005611941
422.334,0.007255772
420.406,0.006623108
418.477,0.003524034
416.549,0.000730676
414.62,0.000404735
412.692,0.001803591
410.763,0.002170439
408.835,0.000252772
406.906,-0.001437499
404.978,0.000810313
403.05,0.006256788
401.121,0.01100273
399.193,0.01299531
