Wavenumbers [1/cm],Absorbance
3997.712,-0.00039572
3995.783,-0.000397168
3993.855,-0.000407616
3991.926,-0.000427995
3989.998,-0.000437201
3988.069,-0.00041703
3986.141,-0.000393289
3984.212,-0.000391737
3982.284,-0.000395358
3980.355,-0.000388944
3978.427,-0.000375805
3976.499,-0.000368719
3974.57,-0.000385995
3972.642,-0.00042303
3970.713,-0.000451631
3968.785,-0.00045582
3966.856,-0.000449355
3964.928,-0.00044227
3962.999,-0.000430943
3961.071,-0.000424581
3959.142,-0.000422564
3957.214,-0.000410306
3955.285,-0.000390909
3953.357,-0.000382478
3951.428,-0.000393754
3949.5,-0.000409013
3947.572,-0.000413926
3945.643,-0.000429443
3943.715,-0.000460423
3941.786,-0.000472576
3939.858,-0.000458406
3937.929,-0.000439839
3936.001,-0.000427684
3934.072,-0.00042484
3932.144,-0.000422305
3930.215,-0.00041584
3928.287,-0.00041884
3926.358,-0.000432029
3924.43,-0.000436736
3922.501,-0.000433839
3920.573,-0.00044139
3918.645,-0.000447441
3916.716,-0.000436011
3914.788,-0.000425098
3912.859,-0.000431719
3910.931,-0.00044982
3909.002,-0.000453854
3907.074,-0.000439322
3905.145,-0.000435908
3903.217,-0.0004477
3901.288,-0.00045613
3899.36,-0.000450389
3897.431,-0.000433477
3895.503,-0.000427788
3893.574,-0.000431512
3891.646,-0.000425874
3889.718,-0.000419616
3887.789,-0.000421943
3885.861,-0.00043027
3883.932,-0.00044439
3882.004,-0.000460578
3880.075,-0.000465905
3878.147,-0.000462181
3876.218,-0.00046968
3874.29,-0.000482764
3872.361,-0.000482091
3870.433,-0.000469525
3868.504,-0.000455251
3866.576,-0.000449407
3864.647,-0.000453286
3862.719,-0.00045913
3860.791,-0.00045763
3858.862,-0.000450493
3856.934,-0.00045763
3855.005,-0.000475524
3853.077,-0.000477437
3851.148,-0.00046818
3849.22,-0.000458457
3847.291,-0.000441907
3845.363,-0.000433839
3843.434,-0.0004522
3841.506,-0.000477023
3839.577,-0.000480126
3837.649,-0.000471852
3835.72,-0.000467404
3833.792,-0.000452096
3831.864,-0.000434563
3829.935,-0.000443097
3828.007,-0.00046094
3826.078,-0.000451269
3824.15,-0.000424219
3822.221,-0.000423547
3820.293,-0.000455147
3818.364,-0.000482919
3816.436,-0.000494089
3814.507,-0.000498433
3812.579,-0.000490314
3810.65,-0.000479506
3808.722,-0.000484367
3806.793,-0.000478989
3804.865,-0.000454165
3802.937,-0.000450286
3801.008,-0.000470973
3799.08,-0.000489331
3797.151,-0.00049683
3795.223,-0.0004929
3793.294,-0.000495589
3791.366,-0.000514774
3789.437,-0.00051948
3787.509,-0.000506035
3785.58,-0.000503966
3783.652,-0.000503863
3781.723,-0.000486694
3779.795,-0.000471542
3777.866,-0.000484005
3775.938,-0.000514257
3774.01,-0.000524702
3772.081,-0.000504845
3770.153,-0.000478937
3768.224,-0.000477644
3766.296,-0.00050438
3764.367,-0.000522117
3762.439,-0.000522324
3760.51,-0.000527443
3758.582,-0.000531011
3756.653,-0.000530649
3754.725,-0.000539387
3752.796,-0.000549677
3750.868,-0.000539439
3748.939,-0.000483643
3747.011,-0.000400789
3745.083,-0.000347716
3743.154,-0.000298725
3741.226,-0.000179456
3739.297,-1.32E-05
3737.369,0.000149284
3735.44,0.000314654
3733.512,0.000479103
3731.583,0.000613724
3729.655,0.000700495
3727.726,0.000712967
3725.798,0.000631974
3723.869,0.000491594
3721.941,0.000346026
3720.012,0.000181266
3718.084,-5.88E-05
3716.156,-0.000312228
3714.227,-0.00042334
3712.299,-0.000349217
3710.37,-0.000173971
3708.442,1.04E-05
3706.513,0.000148559
3704.585,0.000217082
3702.656,0.000209339
3700.728,0.00015133
3698.799,9.10E-05
3696.871,3.76E-05
3694.942,-2.03E-05
3693.014,-9.21E-05
3691.085,-0.000205848
3689.157,-0.000361166
3687.229,-0.000509344
3685.3,-0.000627747
3683.372,-0.000734643
3681.443,-0.000818519
3679.515,-0.000852365
3677.586,-0.000882332
3675.658,-0.000953988
3673.729,-0.001021656
3671.801,-0.001055485
3669.872,-0.001083528
3667.944,-0.001120348
3666.015,-0.001176682
3664.087,-0.001262073
3662.158,-0.001345279
3660.23,-0.001378412
3658.302,-0.00136102
3656.373,-0.001343679
3654.445,-0.001351318
3652.516,-0.001381664
3650.588,-0.001443795
3648.659,-0.001507826
3646.731,-0.001551419
3644.802,-0.001585414
3642.874,-0.00157778
3640.945,-0.0015232
3639.017,-0.001480068
3637.088,-0.001457314
3635.16,-0.001391159
3633.231,-0.001271726
3631.303,-0.001191087
3629.375,-0.001189796
3627.446,-0.001200432
3625.518,-0.001178386
3623.589,-0.001169247
3621.661,-0.001238171
3619.732,-0.00137511
3617.804,-0.001529236
3615.875,-0.001675778
3613.947,-0.00176334
3612.018,-0.001758699
3610.09,-0.001733794
3608.161,-0.001714198
3606.233,-0.001640347
3604.304,-0.00156086
3602.376,-0.001558693
3600.448,-0.001572054
3598.519,-0.001525779
3596.591,-0.001483577
3594.662,-0.001530784
3592.734,-0.001656438
3590.805,-0.001764887
3588.877,-0.001796493
3586.948,-0.001825004
3585.02,-0.001898927
3583.091,-0.00196253
3581.163,-0.00199572
3579.234,-0.002036018
3577.306,-0.00210228
3575.377,-0.002157045
3573.449,-0.002191558
3571.521,-0.002241007
3569.592,-0.002292097
3567.664,-0.002315477
3565.735,-0.002307753
3563.807,-0.002281951
3561.878,-0.002264699
3559.95,-0.00226645
3558.021,-0.002267325
3556.093,-0.002226791
3554.164,-0.002156581
3552.236,-0.002162917
3550.307,-0.002286638
3548.379,-0.002406153
3546.45,-0.002426541
3544.522,-0.002391222
3542.594,-0.002373459
3540.665,-0.002416193
3538.737,-0.002519665
3536.808,-0.002633095
3534.88,-0.002706933
3532.951,-0.002715833
3531.023,-0.002690777
3529.094,-0.002704823
3527.166,-0.002733274
3525.237,-0.002726535
3523.309,-0.002757042
3521.38,-0.002844437
3519.452,-0.002875091
3517.523,-0.00283019
3515.595,-0.002794286
3513.667,-0.002777517
3511.738,-0.002768051
3509.81,-0.002766611
3507.881,-0.002769749
3505.953,-0.002838317
3504.024,-0.00299681
3502.096,-0.003162389
3500.167,-0.003262857
3498.239,-0.003281869
3496.31,-0.003232333
3494.382,-0.003179658
3492.453,-0.003215735
3490.525,-0.003350818
3488.596,-0.003512411
3486.668,-0.003624658
3484.74,-0.003651766
3482.811,-0.003626404
3480.883,-0.003591593
3478.954,-0.00353136
3477.026,-0.003461155
3475.097,-0.003470657
3473.169,-0.003591541
3471.24,-0.003750786
3469.312,-0.003898377
3467.383,-0.004052175
3465.455,-0.004181665
3463.526,-0.004259085
3461.598,-0.004337311
3459.669,-0.004408245
3457.741,-0.004443094
3455.813,-0.00445037
3453.884,-0.004434485
3451.956,-0.004486137
3450.027,-0.004647154
3448.099,-0.004770784
3446.17,-0.004761003
3444.242,-0.004738932
3442.313,-0.004834992
3440.385,-0.004975356
3438.456,-0.00509439
3436.528,-0.005251038
3434.599,-0.005371275
3432.671,-0.005367695
3430.742,-0.005321261
3428.814,-0.005307198
3426.885,-0.005409779
3424.957,-0.005674914
3423.029,-0.005935803
3421.1,-0.00601097
3419.172,-0.005960366
3417.243,-0.005901687
3415.315,-0.005797383
3413.386,-0.005718092
3411.458,-0.005812504
3409.529,-0.00601582
3407.601,-0.006249458
3405.672,-0.006401252
3403.744,-0.006355439
3401.815,-0.006308448
3399.887,-0.006363194
3397.958,-0.006329878
3396.03,-0.006357939
3394.102,-0.006662062
3392.173,-0.00690641
3390.245,-0.006925161
3388.316,-0.00704086
3386.388,-0.007295838
3384.459,-0.007410217
3382.531,-0.007226341
3380.602,-0.006906818
3378.674,-0.006832875
3376.745,-0.007046004
3374.817,-0.007221962
3372.888,-0.007361964
3370.96,-0.007631406
3369.031,-0.007755053
3367.103,-0.007508842
3365.175,-0.007223439
3363.246,-0.007192989
3361.318,-0.00730882
3359.389,-0.007372196
3357.461,-0.007328419
3355.532,-0.00728535
3353.604,-0.007257349
3351.675,-0.007126226
3349.747,-0.006930104
3347.818,-0.006733587
3345.89,-0.006555748
3343.961,-0.006517499
3342.033,-0.006590526
3340.104,-0.006532085
3338.176,-0.006304008
3336.248,-0.006126912
3334.319,-0.006149832
3332.391,-0.006273238
3330.462,-0.00627977
3328.534,-0.006201894
3326.605,-0.006192605
3324.677,-0.006241344
3322.748,-0.00633299
3320.82,-0.006311662
3318.891,-0.006047885
3316.963,-0.005772197
3315.034,-0.005631579
3313.106,-0.005507377
3311.177,-0.00526669
3309.249,-0.004895453
3307.321,-0.004534607
3305.392,-0.004377444
3303.464,-0.004419674
3301.535,-0.004451241
3299.607,-0.00446067
3297.678,-0.004531226
3295.75,-0.004526205
3293.821,-0.004412141
3291.893,-0.004298764
3289.964,-0.004186793
3288.036,-0.004151155
3286.107,-0.004303634
3284.179,-0.004579179
3282.25,-0.004810058
3280.322,-0.004780052
3278.394,-0.004448218
3276.465,-0.004050533
3274.537,-0.00387816
3272.608,-0.004059304
3270.68,-0.004331775
3268.751,-0.004365502
3266.823,-0.004337567
3264.894,-0.004555459
3262.966,-0.004834531
3261.037,-0.004922021
3259.109,-0.004903183
3257.18,-0.004875028
3255.252,-0.004891358
3253.323,-0.004960667
3251.395,-0.005056012
3249.467,-0.005131895
3247.538,-0.00507735
3245.61,-0.005007293
3243.681,-0.005097767
3241.753,-0.005311545
3239.824,-0.005550161
3237.896,-0.00567241
3235.967,-0.00560669
3234.039,-0.005463872
3232.11,-0.005435701
3230.182,-0.005614714
3228.253,-0.005889685
3226.325,-0.005991311
3224.396,-0.005773066
3222.468,-0.005497919
3220.54,-0.00540083
3218.611,-0.005436417
3216.683,-0.005608377
3214.754,-0.005867671
3212.826,-0.006005047
3210.897,-0.005904292
3208.969,-0.00563669
3207.04,-0.00527605
3205.112,-0.004956265
3203.183,-0.004996443
3201.255,-0.005334558
3199.326,-0.005462696
3197.398,-0.005329188
3195.469,-0.005272572
3193.541,-0.005295588
3191.613,-0.005249658
3189.684,-0.005142127
3187.756,-0.005025
3185.827,-0.004994242
3183.899,-0.005049103
3181.97,-0.005017836
3180.042,-0.004860949
3178.113,-0.004726744
3176.185,-0.004688693
3174.256,-0.004648845
3172.328,-0.004496231
3170.399,-0.004286102
3168.471,-0.004192536
3166.542,-0.004269338
3164.614,-0.004356122
3162.686,-0.004240219
3160.757,-0.003954608
3158.829,-0.003777321
3156.9,-0.003818583
3154.972,-0.003891296
3153.043,-0.00379513
3151.115,-0.003591079
3149.186,-0.003516314
3147.258,-0.003537368
3145.329,-0.003420835
3143.401,-0.003241378
3141.472,-0.00318639
3139.544,-0.003204789
3137.615,-0.003261469
3135.687,-0.00333854
3133.759,-0.0032552
3131.83,-0.003020923
3129.902,-0.002862953
3127.973,-0.002832042
3126.045,-0.002850249
3124.116,-0.002823966
3122.188,-0.002691652
3120.259,-0.002500928
3118.331,-0.002304096
3116.402,-0.002151172
3114.474,-0.002079455
3112.545,-0.002057042
3110.617,-0.002064925
3108.688,-0.002036173
3106.76,-0.001889958
3104.832,-0.001707133
3102.903,-0.001582628
3100.975,-0.00149632
3099.046,-0.001430843
3097.118,-0.001368091
3095.189,-0.001291031
3093.261,-0.001230737
3091.332,-0.00118422
3089.404,-0.001112344
3087.475,-0.001020106
3085.547,-0.000926247
3083.618,-0.000810354
3081.69,-0.000670395
3079.761,-0.000550711
3077.833,-0.000450545
3075.905,-0.000352476
3073.976,-0.000292361
3072.048,-0.000262922
3070.119,-0.000198034
3068.191,-8.36E-05
3066.262,2.99E-05
3064.334,0.000107984
3062.405,0.000147653
3060.477,0.000163786
3058.548,0.000186782
3056.62,0.000226639
3054.691,0.000265231
3052.763,0.000283725
3050.834,0.000283984
3048.906,0.000287766
3046.978,0.000319136
3045.049,0.000380043
3043.121,0.000443964
3041.192,0.000489339
3039.264,0.000502738
3037.335,0.000494678
3035.407,0.000501727
3033.478,0.000512482
3031.55,0.000516266
3029.621,0.000541821
3027.693,0.000572924
3025.764,0.000578652
3023.836,0.000551851
3021.907,0.000519013
3019.979,0.000555246
3018.051,0.000657846
3016.122,0.000712137
3014.194,0.000672054
3012.265,0.00060491
3010.337,0.000572405
3008.408,0.00057028
3006.48,0.000578704
3004.551,0.000625674
3002.623,0.000718516
3000.694,0.000797476
2998.766,0.000829142
2996.837,0.000840969
2994.909,0.000873338
2992.98,0.000932559
2991.052,0.001006395
2989.124,0.001107518
2987.195,0.001232314
2985.267,0.001342214
2983.338,0.001417627
2981.41,0.00148635
2979.481,0.001585403
2977.553,0.001708205
2975.624,0.001828052
2973.696,0.001939976
2971.767,0.002058612
2969.839,0.002193334
2967.91,0.002326821
2965.982,0.002449156
2964.053,0.002567047
2962.125,0.002653428
2960.197,0.002678979
2958.268,0.002667545
2956.34,0.002641526
2954.411,0.002589936
2952.483,0.002506796
2950.554,0.002406335
2948.626,0.002324896
2946.697,0.002289581
2944.769,0.002286615
2942.84,0.002284819
2940.912,0.002277637
2938.983,0.002280994
2937.055,0.002281098
2935.126,0.002240245
2933.198,0.002163935
2931.27,0.002097185
2929.341,0.002056766
2927.413,0.002007976
2925.484,0.001933345
2923.556,0.001867151
2921.627,0.001815627
2919.699,0.001742095
2917.77,0.001654881
2915.842,0.001600446
2913.913,0.001571867
2911.985,0.001539524
2910.056,0.001514456
2908.128,0.001497961
2906.199,0.001471701
2904.271,0.001441702
2902.343,0.001414614
2900.414,0.00138558
2898.486,0.001358158
2896.557,0.001330348
2894.629,0.00129797
2892.7,0.001275694
2890.772,0.001267906
2888.843,0.001257495
2886.915,0.001253342
2884.986,0.001284028
2883.058,0.001345798
2881.129,0.001404278
2879.201,0.001433131
2877.272,0.001449338
2875.344,0.001492532
2873.416,0.001554695
2871.487,0.001582389
2869.559,0.001544511
2867.63,0.001454922
2865.702,0.001347278
2863.773,0.001249577
2861.845,0.001172014
2859.916,0.001105806
2857.988,0.001036545
2856.059,0.000964676
2854.131,0.000897098
2852.202,0.000844626
2850.274,0.000825693
2848.345,0.000832488
2846.417,0.000839127
2844.489,0.000842343
2842.56,0.000841565
2840.632,0.00082922
2838.703,0.000812621
2836.775,0.000804945
2834.846,0.000800977
2832.918,0.000793067
2830.989,0.000787855
2829.061,0.000784458
2827.132,0.000776782
2825.204,0.000764853
2823.275,0.000745275
2821.347,0.000727591
2819.418,0.000727928
2817.49,0.000732725
2815.562,0.000725127
2813.633,0.000711126
2811.705,0.000697669
2809.776,0.000688621
2807.848,0.00068022
2805.919,0.000667905
2803.991,0.000656213
2802.062,0.000646025
2800.134,0.00063791
2798.205,0.000624923
2796.277,0.00060434
2794.348,0.000593531
2792.42,0.000592416
2790.491,0.000588061
2788.563,0.000582074
2786.635,0.000575386
2784.706,0.000566366
2782.778,0.000559108
2780.849,0.00055548
2778.921,0.000549648
2776.992,0.000536948
2775.064,0.000522175
2773.135,0.000512767
2771.207,0.000504837
2769.278,0.000491983
2767.35,0.000478222
2765.421,0.000462311
2763.493,0.000446193
2761.564,0.000440621
2759.636,0.000434558
2757.708,0.000413129
2755.779,0.000394215
2753.851,0.000393334
2751.922,0.000390847
2749.994,0.000377944
2748.065,0.000375975
2746.137,0.000386805
2744.208,0.000388593
2742.28,0.000370897
2740.351,0.000347347
2738.423,0.000337114
2736.494,0.000336855
2734.566,0.000332063
2732.637,0.00032069
2730.709,0.000308748
2728.781,0.000302402
2726.852,0.000300588
2724.924,0.00028945
2722.995,0.000267303
2721.067,0.000245468
2719.138,0.000223143
2717.21,0.000206956
2715.281,0.00021312
2713.353,0.000224386
2711.424,0.000221226
2709.496,0.000220812
2707.567,0.000228789
2705.639,0.000229048
2703.71,0.000225189
2701.782,0.000223894
2699.854,0.000220527
2697.925,0.000219051
2695.997,0.000221848
2694.068,0.000216461
2692.14,0.000195897
2690.211,0.000177925
2688.283,0.000175439
2686.354,0.00017505
2684.426,0.000169845
2682.497,0.000171943
2680.569,0.000185927
2678.64,0.000200922
2676.712,0.00020377
2674.783,0.000197166
2672.855,0.000190122
2670.927,0.000180333
2668.998,0.00017518
2667.07,0.000180463
2665.141,0.000180515
2663.213,0.000173212
2661.284,0.000166531
2659.356,0.000161015
2657.427,0.000161041
2655.499,0.00016262
2653.57,0.000159202
2651.642,0.000155292
2649.713,0.000154437
2647.785,0.000152314
2645.856,0.000142163
2643.928,0.000129346
2642,0.000132246
2640.071,0.000151589
2638.143,0.000162931
2636.214,0.000151744
2634.286,0.00013468
2632.357,0.000121241
2630.429,8.71E-05
2628.5,4.18E-05
2626.572,3.51E-05
2624.643,6.29E-05
2622.715,7.90E-05
2620.786,7.42E-05
2618.858,8.03E-05
2616.929,9.91E-05
2615.001,8.65E-05
2613.073,6.06E-05
2611.144,7.45E-05
2609.216,9.23E-05
2607.287,6.61E-05
2605.359,2.36E-05
2603.43,-5.69E-07
2601.502,-6.78E-06
2599.573,3.75E-06
2597.645,3.00E-05
2595.716,3.92E-05
2593.788,2.15E-06
2591.859,-2.44E-05
2589.931,1.55E-05
2588.002,4.69E-05
2586.074,1.47E-05
2584.146,-8.39E-06
2582.217,9.24E-06
2580.289,6.16E-06
2578.36,-2.33E-05
2576.432,-1.98E-05
2574.503,1.04E-05
2572.575,5.72E-06
2570.646,-3.78E-05
2568.718,-6.65E-05
2566.789,-6.58E-05
2564.861,-7.55E-05
2562.932,-0.000101668
2561.004,-0.000125736
2559.075,-0.000152028
2557.147,-0.000173039
2555.219,-0.000152079
2553.29,-7.54E-05
2551.362,2.25E-06
2549.433,1.51E-05
2547.505,-4.18E-05
2545.576,-0.000128997
2543.648,-0.000197258
2541.719,-0.00022308
2539.791,-0.000216508
2537.862,-0.000169986
2535.934,-9.66E-05
2534.005,-7.56E-05
2532.077,-0.000132982
2530.148,-0.000204348
2528.22,-0.000225253
2526.292,-0.000170969
2524.363,-9.83E-05
2522.435,-9.44E-05
2520.506,-0.000137071
2518.578,-0.000179301
2516.649,-0.00025097
2514.721,-0.000321074
2512.792,-0.000323609
2510.864,-0.000284652
2508.935,-0.000245537
2507.007,-0.000208798
2505.078,-0.000174747
2503.15,-0.000159842
2501.221,-0.0001586
2499.293,-0.000148301
2497.365,-0.000135363
2495.436,-0.000145403
2493.508,-0.000193739
2491.579,-0.000245795
2489.651,-0.000263025
2487.722,-0.000259662
2485.794,-0.000247192
2483.865,-0.000216508
2481.937,-0.00019938
2480.008,-0.000225357
2478.08,-0.000239276
2476.151,-0.000235085
2474.223,-0.000276374
2472.294,-0.000327386
2470.366,-0.000324437
2468.438,-0.000287239
2466.509,-0.000275236
2464.581,-0.00029293
2462.652,-0.000279634
2460.724,-0.000237361
2458.795,-0.000228979
2456.867,-0.000252936
2454.938,-0.000268355
2453.01,-0.000282997
2451.081,-0.000314246
2449.153,-0.000332197
2447.224,-0.000306692
2445.296,-0.000269545
2443.367,-0.000285998
2441.439,-0.000344871
2439.51,-0.000366649
2437.582,-0.000343268
2435.654,-0.000328886
2433.725,-0.000349527
2431.797,-0.000384392
2429.868,-0.000391116
2427.94,-0.000378598
2426.011,-0.000374615
2424.083,-0.000380305
2422.154,-0.000394271
2420.226,-0.000403892
2418.297,-0.000420288
2416.369,-0.000429908
2414.44,-0.000380357
2412.512,-0.000310831
2410.583,-0.000289361
2408.655,-0.000298518
2406.727,-0.000302967
2404.798,-0.000301312
2402.87,-0.000297483
2400.941,-0.000301519
2399.013,-0.000318695
2397.084,-0.000335301
2395.156,-0.000348027
2393.227,-0.000364063
2391.299,-0.000362252
2389.37,-0.000281031
2387.442,-3.72E-05
2385.513,0.000492294
2383.585,0.001457545
2381.656,0.003036192
2379.728,0.005381216
2377.8,0.008399972
2375.871,0.01176773
2373.943,0.01513564
2372.014,0.01827928
2370.086,0.02116698
2368.157,0.02379132
2366.229,0.02603931
2364.3,0.02776958
2362.372,0.02888877
2360.443,0.02927486
2358.515,0.02878976
2356.586,0.02738124
2354.658,0.02488212
2352.729,0.02095072
2350.801,0.01652992
2348.873,0.01437138
2346.944,0.01595552
2345.016,0.01934775
2343.087,0.02149573
2341.159,0.02195725
2339.23,0.02170328
2337.302,0.02117101
2335.373,0.02061378
2333.445,0.02026881
2331.516,0.01999482
2329.588,0.01933968
2327.659,0.01829513
2325.731,0.01732708
2323.802,0.01656676
2321.874,0.01562278
2319.946,0.01419683
2318.017,0.01250328
2316.089,0.01097143
2314.16,0.009729207
2312.232,0.008548846
2310.303,0.007316422
2308.375,0.006113896
2306.446,0.005005965
2304.518,0.004039831
2302.589,0.003276002
2300.661,0.002699894
2298.732,0.00220348
2296.804,0.001771256
2294.875,0.001427262
2292.947,0.001102043
2291.019,0.000742397
2289.09,0.000380483
2287.162,7.57E-05
2285.233,-0.00017366
2283.305,-0.000361528
2281.376,-0.000412478
2279.448,-0.000295
2277.519,-4.61E-05
2275.591,0.000259455
2273.662,0.000464047
2271.734,0.00045122
2269.805,0.000265205
2267.877,-2.18E-05
2265.948,-0.000258731
2264.02,-0.000284859
2262.092,-0.000155857
2260.163,3.03E-05
2258.235,0.00019626
2256.306,0.000145271
2254.378,-0.000207763
2252.449,-0.000525064
2250.521,-0.000410254
2248.592,-1.58E-05
2246.664,7.23E-05
2244.735,-0.000244398
2242.807,-0.000482298
2240.878,-0.000488866
2238.95,-0.000357131
2237.021,-0.000208487
2235.093,-0.000254229
2233.165,-0.000340526
2231.236,-0.000324437
2229.308,-0.000471645
2227.379,-0.000794283
2225.451,-0.000789736
2223.522,-0.000279789
2221.594,5.48E-05
2219.665,-0.000267009
2217.737,-0.000730509
2215.808,-0.000654525
2213.88,-5.07E-05
2211.951,0.000354498
2210.023,0.00010612
2208.094,-0.000290395
2206.166,-0.000413254
2204.238,-0.000600346
2202.309,-0.001044433
2200.381,-0.001183549
2198.452,-0.000948151
2196.524,-0.001176527
2194.595,-0.001909133
2192.667,-0.002350133
2190.738,-0.002027155
2188.81,-0.001218502
2186.881,-0.000849936
2184.953,-0.001229601
2183.024,-0.001607955
2181.096,-0.001238584
2179.167,-0.000347199
2177.239,0.000254819
2175.311,0.000277457
2173.382,-0.000279737
2171.454,-0.001264241
2169.525,-0.002021744
2167.597,-0.002354613
2165.668,-0.002678737
2163.74,-0.002828955
2161.811,-0.002724837
2159.883,-0.002416347
2157.954,-0.00129098
2156.026,0.000234254
2154.097,0.00135647
2152.169,0.001307707
2150.24,0.000230679
2148.312,-0.000235085
2146.384,1.23E-05
2144.455,-2.92E-05
2142.527,-0.000316936
2140.598,-0.00072441
2138.67,-0.001139815
2136.741,-0.001358491
2134.813,-0.001383986
2132.884,-0.001194546
2130.956,-0.000924439
2129.027,-0.000810303
2127.099,-0.000891322
2125.17,-0.000942468
2123.242,-0.000736452
2121.313,-0.000421168
2119.385,-0.000229186
2117.457,-0.000145248
2115.528,-0.000191203
2113.6,-0.000450234
2111.671,-0.000708697
2109.743,-0.000667448
2107.814,-0.000457061
2105.886,-0.000384754
2103.957,-0.000547661
2102.029,-0.000779245
2100.1,-0.000803792
2098.172,-0.000758986
2096.243,-0.000937199
2094.315,-0.001046757
2092.386,-0.000786273
2090.458,-0.000426547
2088.53,-0.000201605
2086.601,-0.000135673
2084.673,-0.000335249
2082.744,-0.000710144
2080.816,-0.000808649
2078.887,-0.00051948
2076.959,-0.000293758
2075.03,-0.00032692
2073.102,-0.00048928
2071.173,-0.000599106
2069.245,-0.000286153
2067.316,0.000267795
2065.388,0.000297817
2063.459,-0.000213248
2061.531,-0.000602931
2059.603,-0.000700272
2057.674,-0.000673031
2055.746,-0.000561104
2053.817,-0.000646978
2051.889,-0.000925937
2049.96,-0.001050166
2048.032,-0.001409737
2046.103,-0.00237557
2044.175,-0.0028431
2042.246,-0.001902793
2040.318,-0.000779038
2038.389,-0.000732059
2036.461,-0.000849264
2034.532,-9.80E-05
2032.604,0.000431552
2030.676,-0.000702546
2028.747,-0.002140096
2026.819,-0.001991185
2024.89,-0.000966335
2022.962,-0.000250142
2021.033,-0.000749683
2019.105,-0.002529548
2017.176,-0.003212857
2015.248,-0.001707288
2013.319,0.00013846
2011.391,0.001237869
2009.462,0.001367428
2007.534,0.000613931
2005.605,0.000330586
2003.677,0.000981176
2001.749,0.001356132
1999.82,0.000847816
1997.892,0.000169483
1995.963,5.37E-05
1994.035,0.000260905
1992.106,3.25E-05
1990.178,-0.000684765
1988.249,-0.00127219
1986.321,-0.001777829
1984.392,-0.002242191
1982.464,-0.001936863
1980.535,-0.000988546
1978.607,-0.000338819
1976.678,-0.000301881
1974.75,-0.00046425
1972.822,-0.000254126
1970.893,0.000104074
1968.965,-0.000119421
1967.036,-0.000709627
1965.108,-0.00080436
1963.179,-4.13E-05
1961.251,0.0007376
1959.322,0.000360741
1957.394,-0.000619062
1955.465,-0.001207712
1953.537,-0.001463299
1951.608,-0.001564161
1949.68,-0.001483783
1947.751,-0.001212823
1945.823,-0.001018763
1943.895,-0.001077538
1941.966,-0.001071908
1940.038,-0.000980127
1938.109,-0.000958638
1936.181,-0.000708439
1934.252,-0.000169106
1932.324,0.000153479
1930.395,9.03E-06
1928.467,-0.000327903
1926.538,-0.000647598
1924.61,-0.000892097
1922.681,-0.000932395
1920.753,-0.000758211
1918.824,-0.000593522
1916.896,-0.000633072
1914.968,-0.000752784
1913.039,-0.000761208
1911.111,-0.000721257
1909.182,-0.000673703
1907.254,-0.000574237
1905.325,-0.000472524
1903.397,-0.000412013
1901.468,-0.000421168
1899.54,-0.000478265
1897.611,-0.000484419
1895.683,-0.000441545
1893.754,-0.00043146
1891.826,-0.000476661
1889.897,-0.000555882
1887.969,-0.00063638
1886.041,-0.000678407
1884.112,-0.00066719
1882.184,-0.000634364
1880.255,-0.000596314
1878.327,-0.000546937
1876.398,-0.000516635
1874.47,-0.000517463
1872.541,-0.00052827
1870.613,-0.000529097
1868.684,-0.000528477
1866.756,-0.000574444
1864.827,-0.000636742
1862.899,-0.000640568
1860.97,-0.000618183
1859.042,-0.000602001
1857.114,-0.000599571
1855.185,-0.000636742
1853.257,-0.000678045
1851.328,-0.000683318
1849.4,-0.000655662
1847.471,-0.000640102
1845.543,-0.000676236
1843.614,-0.000693346
1841.686,-0.000646823
1839.757,-0.000603552
1837.829,-0.000593729
1835.9,-0.000596883
1833.972,-0.000601019
1832.043,-0.000599623
1830.115,-0.000575064
1828.187,-0.000533441
1826.258,-0.000526512
1824.33,-0.000556451
1822.401,-0.000557381
1820.473,-0.000533751
1818.544,-0.000538043
1816.616,-0.000535147
1814.687,-0.000509603
1812.759,-0.000515084
1810.83,-0.000535406
1808.902,-0.000532252
1806.973,-0.000523099
1805.045,-0.000520255
1803.116,-0.000523823
1801.188,-0.000541352
1799.26,-0.000557071
1797.331,-0.000545437
1795.403,-0.00052858
1793.474,-0.000543989
1791.546,-0.000575788
1789.617,-0.000588352
1787.689,-0.000582509
1785.76,-0.00058163
1783.832,-0.000588145
1781.903,-0.000583905
1779.975,-0.000567774
1778.046,-0.000561776
1776.118,-0.000581837
1774.189,-0.000611617
1772.261,-0.000623973
1770.333,-0.000617045
1768.404,-0.00060836
1766.476,-0.000610686
1764.547,-0.000620251
1762.619,-0.000629039
1760.69,-0.000636432
1758.762,-0.000641291
1756.833,-0.000644496
1754.905,-0.000651113
1752.976,-0.00065375
1751.048,-0.000641395
1749.119,-0.000626816
1747.191,-0.000632089
1745.262,-0.000652251
1743.334,-0.000667293
1741.406,-0.000682749
1739.477,-0.000705441
1737.549,-0.00072074
1735.62,-0.00073025
1733.692,-0.00074069
1731.763,-0.000745549
1729.835,-0.000747409
1727.906,-0.000750252
1725.978,-0.00075573
1724.049,-0.000767358
1722.121,-0.000782294
1720.192,-0.000790872
1718.264,-0.000795007
1716.335,-0.000806841
1714.407,-0.0008164
1712.479,-0.000808339
1710.55,-0.000791958
1708.622,-0.000780847
1706.693,-0.000766325
1704.765,-0.000723945
1702.836,-0.000645634
1700.908,-0.000541197
1698.979,-0.000406013
1697.051,-0.000213869
1695.122,5.79E-05
1693.194,0.000399267
1691.265,0.000789151
1689.337,0.001223202
1687.408,0.001682815
1685.48,0.002148196
1683.552,0.002631682
1681.623,0.003145012
1679.695,0.003689676
1677.766,0.004269295
1675.838,0.004890343
1673.909,0.005571507
1671.981,0.006334057
1670.052,0.00719692
1668.124,0.008149852
1666.195,0.009153258
1664.267,0.01022969
1662.338,0.01144695
1660.41,0.01276917
1658.481,0.01402424
1656.553,0.01501734
1654.625,0.01563445
1652.696,0.01585091
1650.768,0.01571022
1648.839,0.01530433
1646.911,0.01475061
1644.982,0.01416112
1643.054,0.01357315
1641.125,0.01297427
1639.197,0.01238109
1637.268,0.01180539
1635.34,0.01123293
1633.411,0.01066029
1631.483,0.01007229
1629.554,0.009461283
1627.626,0.008870391
1625.698,0.008304498
1623.769,0.007721027
1621.841,0.007143312
1619.912,0.006617746
1617.984,0.006126471
1616.055,0.005639869
1614.127,0.005162507
1612.198,0.004714559
1610.27,0.004315333
1608.341,0.003976633
1606.413,0.003708056
1604.484,0.003501696
1602.556,0.003334534
1600.627,0.003204308
1598.699,0.003121233
1596.771,0.003090442
1594.842,0.003118313
1592.914,0.003200475
1590.985,0.003312936
1589.057,0.003437192
1587.128,0.003588211
1585.2,0.003789677
1583.271,0.004029773
1581.343,0.004280693
1579.414,0.004539397
1577.486,0.004823644
1575.557,0.005148257
1573.629,0.005507299
1571.7,0.005889911
1569.772,0.006309708
1567.844,0.00679559
1565.915,0.007375791
1563.987,0.008063136
1562.058,0.008859242
1560.13,0.009791343
1558.201,0.01087164
1556.273,0.01203418
1554.344,0.01319044
1552.416,0.01425401
1550.487,0.01511248
1548.559,0.01567444
1546.63,0.01591105
1544.702,0.01582817
1542.773,0.01545057
1540.845,0.014844
1538.917,0.01410274
1536.988,0.01330957
1535.06,0.01250008
1533.131,0.01168414
1531.203,0.01088868
1529.274,0.01014826
1527.346,0.009483824
1525.417,0.008890286
1523.489,0.008350833
1521.56,0.007872726
1519.632,0.007457735
1517.703,0.0070609
1515.775,0.006633595
1513.846,0.00616076
1511.918,0.005660193
1509.99,0.005171676
1508.061,0.004721547
1506.133,0.004319909
1504.204,0.003975666
1502.276,0.00368751
1500.347,0.003446351
1498.419,0.00322804
1496.49,0.002998214
1494.562,0.002745349
1492.633,0.002489144
1490.705,0.002261035
1488.776,0.002076507
1486.848,0.001928977
1484.919,0.001813339
1482.991,0.00173921
1481.063,0.001719042
1479.134,0.001755922
1477.206,0.0018567
1475.277,0.002022565
1473.349,0.002223098
1471.42,0.002406101
1469.492,0.002520673
1467.563,0.002554288
1465.635,0.002557517
1463.706,0.002599181
1461.778,0.002701093
1459.849,0.002828457
1457.921,0.002937121
1455.992,0.003004756
1454.064,0.003014609
1452.135,0.002963965
1450.207,0.00288659
1448.279,0.002823611
1446.35,0.002785104
1444.422,0.002757176
1442.493,0.002728704
1440.565,0.002686298
1438.636,0.002600821
1436.708,0.002465349
1434.779,0.002325338
1432.851,0.002225128
1430.922,0.002170023
1428.994,0.002158238
1427.065,0.002188599
1425.137,0.002245293
1423.208,0.002312794
1421.28,0.002378771
1419.352,0.002436869
1417.423,0.002495548
1415.495,0.002561318
1413.566,0.002639859
1411.638,0.002749986
1409.709,0.002906004
1407.781,0.003099254
1405.852,0.003302032
1403.924,0.003482255
1401.995,0.003618071
1400.067,0.003702208
1398.138,0.003740327
1396.21,0.003734817
1394.281,0.003677067
1392.353,0.003575578
1390.425,0.003456135
1388.496,0.003322534
1386.568,0.003150331
1384.639,0.002922214
1382.711,0.002653949
1380.782,0.002385173
1378.854,0.002149861
1376.925,0.00196668
1374.997,0.001842428
1373.068,0.001774375
1371.14,0.001748618
1369.211,0.001736585
1367.283,0.00170927
1365.354,0.001656206
1363.426,0.001586105
1361.498,0.001519781
1359.569,0.001477181
1357.641,0.001460013
1355.712,0.00145635
1353.784,0.001460792
1351.855,0.001481207
1349.927,0.001521885
1347.998,0.001572673
1346.07,0.001625883
1344.141,0.001686376
1342.213,0.001748722
1340.284,0.001798497
1338.356,0.001836241
1336.427,0.001869698
1334.499,0.001908384
1332.571,0.00196161
1330.642,0.002025686
1328.714,0.002094714
1326.785,0.002169217
1324.857,0.002247192
1322.928,0.002321695
1321,0.002386787
1319.071,0.002445043
1317.143,0.002503047
1315.214,0.00255973
1313.286,0.002607176
1311.357,0.002642958
1309.429,0.002676583
1307.5,0.00271383
1305.572,0.0027404
1303.644,0.002741468
1301.715,0.002719899
1299.787,0.002689866
1297.858,0.002666946
1295.93,0.002648949
1294.001,0.002620405
1292.073,0.002580978
1290.144,0.002539055
1288.216,0.002497892
1286.287,0.002458294
1284.359,0.002419376
1282.43,0.002376558
1280.502,0.002330517
1278.573,0.002292079
1276.645,0.002264002
1274.717,0.002239438
1272.788,0.002222109
1270.86,0.002216541
1268.931,0.002214278
1267.003,0.002209282
1265.074,0.002206368
1263.146,0.002205015
1261.217,0.002201087
1259.289,0.002195571
1257.36,0.002191929
1255.432,0.002199005
1253.503,0.002216984
1251.575,0.002231216
1249.646,0.002233662
1247.718,0.002227365
1245.79,0.002216229
1243.861,0.002197418
1241.933,0.002165184
1240.004,0.002123952
1238.076,0.002075024
1236.147,0.002009822
1234.219,0.001928665
1232.29,0.001832965
1230.362,0.001721927
1228.433,0.001609981
1226.505,0.001514404
1224.576,0.001434222
1222.648,0.001362105
1220.719,0.0013028
1218.791,0.001257002
1216.863,0.001209963
1214.934,0.001159088
1213.006,0.001120572
1211.077,0.001098046
1209.149,0.001077986
1207.22,0.001056188
1205.292,0.001036
1203.363,0.001011351
1201.435,0.000981202
1199.506,0.000957541
1197.578,0.000949733
1195.649,0.000957593
1193.721,0.000973523
1191.792,0.000987403
1189.864,0.000995576
1187.936,0.001004579
1186.007,0.00102256
1184.079,0.001048404
1182.15,0.001086446
1180.222,0.001152236
1178.293,0.001245631
1176.365,0.00135338
1174.436,0.001459831
1172.508,0.001536406
1170.579,0.00155854
1168.651,0.001533575
1166.722,0.001489129
1164.794,0.001438923
1162.865,0.001376413
1160.937,0.001300671
1159.009,0.001224474
1157.08,0.001156597
1155.152,0.001096203
1153.223,0.001041449
1151.295,0.000994953
1149.366,0.000961718
1147.438,0.000934997
1145.509,0.000901949
1143.581,0.000870174
1141.652,0.000855623
1139.724,0.000861978
1137.795,0.000890276
1135.867,0.000939382
1133.938,0.001002296
1132.01,0.001068203
1130.082,0.001124673
1128.153,0.001166849
1126.225,0.00118873
1124.296,0.001181177
1122.368,0.001150705
1120.439,0.00111777
1118.511,0.001102068
1116.582,0.001101939
1114.654,0.001106844
1112.725,0.001127632
1110.797,0.001166537
1108.868,0.001204097
1106.94,0.001230523
1105.011,0.001237532
1103.083,0.00120337
1101.155,0.001128384
1099.226,0.001047418
1097.298,0.000988493
1095.369,0.000956893
1093.441,0.0009502
1091.512,0.00095295
1089.584,0.000946749
1087.655,0.000931236
1085.727,0.000904647
1083.798,0.000854767
1081.87,0.00079037
1079.941,0.000727461
1078.013,0.000661994
1076.084,0.000595241
1074.156,0.0005377
1072.228,0.000481772
1070.299,0.000421188
1068.371,0.00037056
1066.442,0.00033398
1064.514,0.000302013
1062.585,0.000279348
1060.657,0.000271085
1058.728,0.000274219
1056.8,0.000288025
1054.871,0.000306469
1052.943,0.000318385
1051.014,0.000319784
1049.086,0.000311287
1047.157,0.000291367
1045.229,0.000261812
1043.301,0.000230887
1041.372,0.000206231
1039.444,0.000182586
1037.515,0.000150475
1035.587,0.000117901
1033.658,9.75E-05
1031.73,9.35E-05
1029.801,9.52E-05
1027.873,8.10E-05
1025.944,5.80E-05
1024.016,5.39E-05
1022.087,7.06E-05
1020.159,9.41E-05
1018.23,0.000121603
1016.302,0.000142862
1014.374,0.000139341
1012.445,0.000120542
1010.517,0.000104462
1008.588,8.42E-05
1006.66,4.88E-05
1004.731,3.44E-06
1002.803,-3.34E-05
1000.874,-5.31E-05
998.946,-6.23E-05
997.017,-6.56E-05
995.089,-7.00E-05
993.16,-8.40E-05
991.232,-9.50E-05
989.303,-7.97E-05
987.375,-3.98E-05
985.447,-1.55E-06
983.518,1.99E-05
981.59,2.86E-05
979.661,2.71E-05
977.733,2.30E-05
975.804,2.89E-05
973.876,3.60E-05
971.947,3.22E-05
970.019,2.60E-05
968.09,2.49E-05
966.162,2.44E-05
964.233,2.20E-05
962.305,2.63E-05
960.376,4.74E-05
958.448,7.55E-05
956.52,9.15E-05
954.591,9.28E-05
952.663,8.69E-05
950.734,8.13E-05
948.806,8.48E-05
946.877,9.85E-05
944.949,0.000117486
943.02,0.000135534
941.092,0.000145141
939.163,0.000152547
937.235,0.000173082
935.306,0.000197814
933.378,0.00020548
931.449,0.000199445
929.521,0.000195043
927.593,0.000195613
925.664,0.000197659
923.736,0.000196364
921.807,0.000183493
919.879,0.000159927
917.95,0.00013903
916.022,0.000126057
914.093,0.000117978
912.165,0.000109408
910.236,9.70E-05
908.308,9.12E-05
906.379,8.94E-05
904.451,7.79E-05
902.522,6.86E-05
900.594,7.02E-05
898.666,6.26E-05
896.737,4.12E-05
894.809,3.96E-05
892.88,7.20E-05
890.952,0.000101718
889.023,0.000105654
887.095,0.000102184
885.166,9.81E-05
883.238,8.72E-05
881.309,7.97E-05
879.381,8.00E-05
877.452,9.17E-05
875.524,0.000117409
873.595,0.000133773
871.667,0.000127973
869.739,0.000112101
867.81,9.19E-05
865.882,7.78E-05
863.953,8.41E-05
862.025,9.51E-05
860.096,9.42E-05
858.168,0.000103194
856.239,0.000130589
854.311,0.000143406
852.382,0.000138305
850.454,0.000144287
848.525,0.000144986
846.597,0.000124892
844.668,0.000123028
842.74,0.000149336
840.812,0.000165365
838.883,0.000154411
836.955,0.000152417
835.026,0.000204729
833.098,0.000282974
831.169,0.000315587
829.241,0.000310277
827.312,0.000328436
825.384,0.000361985
823.455,0.000374861
821.527,0.000366286
819.598,0.00033271
817.67,0.000283518
815.741,0.000254378
813.813,0.000252721
811.885,0.000240755
809.956,0.000216228
808.028,0.000212964
806.099,0.000222417
804.171,0.000228996
802.242,0.0002471
800.314,0.000302635
798.385,0.000379136
796.457,0.000420151
794.528,0.000398594
792.6,0.000330353
790.671,0.000287248
788.743,0.000310017
786.814,0.000338513
784.886,0.000349342
782.958,0.000387556
781.029,0.000444223
779.101,0.00046187
777.172,0.000424738
775.244,0.000363876
773.315,0.00035841
771.387,0.00042124
769.458,0.000416835
767.53,0.000313929
765.601,0.000237517
763.673,0.000221122
761.744,0.000221381
759.816,0.000259688
757.887,0.000382297
755.959,0.0005363
754.031,0.000567973
752.102,0.000437538
750.174,0.000337943
748.245,0.000359886
746.317,0.000372737
744.388,0.000404009
742.46,0.000539799
740.531,0.000621008
738.603,0.000566936
736.674,0.000517639
734.746,0.000478662
732.817,0.000415954
730.889,0.00040901
728.96,0.000398438
727.032,0.000300459
725.104,0.000254378
723.175,0.000416912
721.247,0.000669254
719.318,0.000732336
717.39,0.000573235
715.461,0.000399656
713.533,0.000341518
711.604,0.000320664
709.676,0.000257305
707.747,0.000374498
705.819,0.000743149
703.89,0.00100598
701.962,0.001126516
700.033,0.001334113
698.105,0.001508871
696.177,0.001510377
694.248,0.001532224
692.32,0.001859715
690.391,0.002418621
688.463,0.002762673
686.534,0.002800944
684.606,0.002909809
682.677,0.003066145
680.749,0.002965477
678.82,0.002775621
676.892,0.002690543
674.963,0.002622879
673.035,0.003086427
671.106,0.005811042
669.178,0.01072863
667.25,0.01178584
665.321,0.007045825
663.393,0.003347759
661.464,0.002268841
659.536,0.002307798
657.607,0.003276758
655.679,0.004377745
653.75,0.004592448
651.822,0.004061518
649.893,0.003175415
647.965,0.002196118
646.036,0.001653296
644.108,0.001925701
642.179,0.00264525
640.251,0.003385925
638.323,0.003319848
636.394,0.001737572
634.466,0.000175698
632.537,0.000310743
630.609,0.001229822
628.68,0.000970695
626.752,-0.000338664
624.823,-0.000563121
622.895,-0.000501691
620.966,-0.002528672
619.038,-0.004464821
617.109,-0.002850198
615.181,0.000448758
613.252,1.55E-06
611.324,-0.003611514
609.396,-0.004683929
607.467,-0.003027915
605.539,-0.001880473
603.61,-0.000919169
601.682,0.000386416
599.753,0.000305899
597.825,-0.001113996
595.896,-0.002537937
593.968,-0.002659699
592.039,0.000732543
590.111,0.00580228
588.182,0.007885774
586.254,0.007707931
584.325,0.00744204
582.397,0.006783389
580.469,0.007353069
578.54,0.008141966
576.612,0.005563012
574.683,0.002056401
572.755,-0.001073354
570.826,-0.003941885
568.898,-0.002812342
566.969,0.002096847
565.041,0.009097241
563.112,0.01626524
561.184,0.01869272
559.255,0.01572082
557.327,0.01210144
555.398,0.01197574
553.47,0.01243108
551.542,0.01000416
549.613,0.007880976
547.685,0.007008046
545.756,0.006046116
543.828,0.007536851
541.899,0.009333466
539.971,0.006173048
538.042,0.002948484
536.114,0.006331798
534.185,0.01060018
532.257,0.009510468
530.328,0.009093567
528.4,0.01315215
526.471,0.01482445
524.543,0.01183375
522.615,0.009117278
520.686,0.00913121
518.758,0.01215454
516.829,0.0152873
514.901,0.014829
512.972,0.01138349
511.044,0.005836543
509.115,-0.000406789
507.187,-0.002841146
505.258,0.000478351
503.33,0.00516421
501.401,0.006976663
499.473,0.00733722
497.544,0.009588502
495.616,0.01161745
493.688,0.00953968
491.759,0.008471921
489.831,0.01253325
487.902,0.01259299
485.974,0.005822979
484.045,0.002039548
482.117,0.004121332
480.188,0.007936915
478.26,0.01083053
476.331,0.009991707
474.403,0.006572935
472.474,0.004648542
470.546,0.004704563
468.617,0.006843711
466.689,0.009615047
464.76,0.009738922
462.832,0.008091275
460.904,0.00573447
458.975,0.003433696
457.047,0.002915099
455.118,0.004361088
453.19,0.007714176
451.261,0.009931689
449.333,0.008116224
447.404,0.005745906
445.476,0.006545078
443.547,0.008407362
441.619,0.007157654
439.69,0.004984022
437.762,0.007216527
435.833,0.01117765
433.905,0.01050032
431.977,0.00655898
430.048,0.004477407
428.12,0.003346559
426.191,0.002022461
424.263,0.003766829
422.334,0.006930842
420.406,0.006826697
418.477,0.00486707
416.549,0.003419789
414.62,0.002854669
412.692,0.005414686
410.763,0.008929127
408.835,0.008252046
406.906,0.00610056
404.978,0.006750261
403.05,0.007981314
401.121,0.008140014
399.193,0.008214452
