Wavenumbers [1/cm],absorbance
3997.712,-0.000411599
3995.783,-0.000411082
3993.855,-0.000410564
3991.926,-0.000427219
3989.998,-0.000438856
3988.069,-0.000422357
3986.141,-0.000401099
3984.212,-0.000399909
3982.284,-0.000406685
3980.355,-0.000404513
3978.427,-0.000400271
3976.499,-0.000405496
3974.57,-0.000413564
3972.642,-0.000416357
3970.713,-0.000427788
3968.785,-0.000454061
3966.856,-0.000468025
3964.928,-0.000451786
3962.999,-0.00042846
3961.071,-0.000415064
3959.142,-0.000399754
3957.214,-0.000386668
3955.285,-0.000387806
3953.357,-0.000396651
3951.428,-0.000400116
3949.5,-0.000392564
3947.572,-0.000386616
3945.643,-0.000398875
3943.715,-0.000418064
3941.786,-0.000422357
3939.858,-0.00040984
3937.929,-0.000396858
3936.001,-0.000392927
3934.072,-0.000395823
3932.144,-0.000401151
3930.215,-0.000401978
3928.287,-0.000394789
3926.358,-0.000385582
3924.43,-0.000386771
3922.501,-0.000405444
3920.573,-0.000418116
3918.645,-0.000400892
3916.716,-0.000372081
3914.788,-0.000358476
3912.859,-0.000373271
3910.931,-0.000407616
3909.002,-0.000427736
3907.074,-0.000426909
3905.145,-0.000421788
3903.217,-0.000413099
3901.288,-0.000402599
3899.36,-0.000388064
3897.431,-0.000371822
3895.503,-0.000370581
3893.574,-0.000375133
3891.646,-0.000380461
3889.718,-0.00040084
3887.789,-0.000416461
3885.861,-0.000411754
3883.932,-0.000409375
3882.004,-0.00042215
3880.075,-0.000434822
3878.147,-0.000439684
3876.218,-0.000443666
3874.29,-0.000435856
3872.361,-0.000419409
3870.433,-0.000422461
3868.504,-0.000440459
3866.576,-0.000446821
3864.647,-0.000433684
3862.719,-0.000409892
3860.791,-0.000394375
3858.862,-0.000411547
3856.934,-0.000441752
3855.005,-0.000431408
3853.077,-0.000395771
3851.148,-0.000391892
3849.22,-0.000406944
3847.291,-0.000401409
3845.363,-0.00038884
3843.434,-0.000405702
3841.506,-0.00044408
3839.577,-0.000460578
3837.649,-0.000451372
3835.72,-0.000445735
3833.792,-0.000442476
3831.864,-0.000439684
3829.935,-0.000449407
3828.007,-0.00045794
3826.078,-0.000442063
3824.15,-0.000406737
3822.221,-0.000388323
3820.293,-0.000408909
3818.364,-0.000433581
3816.436,-0.000432857
3814.507,-0.000439425
3812.579,-0.00046337
3810.65,-0.000468387
3808.722,-0.000460991
3806.793,-0.00045644
3804.865,-0.000437873
3802.937,-0.000414392
3801.008,-0.00041134
3799.08,-0.000427633
3797.151,-0.000443097
3795.223,-0.000446976
3793.294,-0.000447803
3791.366,-0.000452562
3789.437,-0.000454785
3787.509,-0.000452872
3785.58,-0.000454734
3783.652,-0.000446459
3781.723,-0.000425409
3779.795,-0.000430012
3777.866,-0.000469525
3775.938,-0.00050407
3774.01,-0.000504638
3772.081,-0.000478161
3770.153,-0.00045313
3768.224,-0.000455354
3766.296,-0.000479247
3764.367,-0.000503397
3762.439,-0.000527856
3760.51,-0.000549936
3758.582,-0.000548953
3756.653,-0.000519945
3754.725,-0.000487935
3752.796,-0.000467404
3750.868,-0.000439063
3748.939,-0.00038734
3747.011,-0.000324696
3745.083,-0.000262094
3743.154,-0.000184114
3741.226,-7.06E-05
3739.297,7.50E-05
3737.369,0.000245831
3735.44,0.00044469
3733.512,0.000644236
3731.583,0.000791019
3729.655,0.000864831
3727.726,0.000867295
3725.798,0.000789904
3723.869,0.000651961
3721.941,0.000486618
3720.012,0.000271836
3718.084,-3.16E-06
3716.156,-0.000238189
3714.227,-0.000305968
3712.299,-0.000199535
3710.37,-2.99E-05
3708.442,0.000120904
3706.513,0.000257953
3704.585,0.000355327
3702.656,0.000351311
3700.728,0.000273494
3698.799,0.000199238
3696.871,0.000131987
3694.942,4.38E-05
3693.014,-5.57E-05
3691.085,-0.000163413
3689.157,-0.00029262
3687.229,-0.000427012
3685.3,-0.000529511
3683.372,-0.000595228
3681.443,-0.000643876
3679.515,-0.000683111
3677.586,-0.000746427
3675.658,-0.00086151
3673.729,-0.000977751
3671.801,-0.001036634
3669.872,-0.001050372
3667.944,-0.001068242
3666.015,-0.001114151
3664.087,-0.001166923
3662.158,-0.001207092
3660.23,-0.00124705
3658.302,-0.00129929
3656.373,-0.001349047
3654.445,-0.001370826
3652.516,-0.001366697
3650.588,-0.001364633
3648.659,-0.001382025
3646.731,-0.001428314
3644.802,-0.001492864
3642.874,-0.001535427
3640.945,-0.001522529
3639.017,-0.001458088
3637.088,-0.001375987
3635.16,-0.001278798
3633.231,-0.00115448
3631.303,-0.001023928
3629.375,-0.000920461
3627.446,-0.000881454
3625.518,-0.00090801
3623.589,-0.000962564
3621.661,-0.001052954
3619.732,-0.001211945
3617.804,-0.001409221
3615.875,-0.00157422
3613.947,-0.001671034
3612.018,-0.001701977
3610.09,-0.001692436
3608.161,-0.001659326
3606.233,-0.001588767
3604.304,-0.001513346
3602.376,-0.001489716
3600.448,-0.001483938
3598.519,-0.001447355
3596.591,-0.001423412
3594.662,-0.001466395
3592.734,-0.001552245
3590.805,-0.00160909
3588.877,-0.001628896
3586.948,-0.001658347
3585.02,-0.001706721
3583.091,-0.001763598
3581.163,-0.001824076
3579.234,-0.001906453
3577.306,-0.002035245
3575.377,-0.00214839
3573.449,-0.00216096
3571.521,-0.00213211
3569.592,-0.002163587
3567.664,-0.00224317
3565.735,-0.002311666
3563.807,-0.002311203
3561.878,-0.002249968
3559.95,-0.002224216
3558.021,-0.002261042
3556.093,-0.002294209
3554.164,-0.002290501
3552.236,-0.00229081
3550.307,-0.002307135
3548.379,-0.002326909
3546.45,-0.002374231
3544.522,-0.002393899
3542.594,-0.002358217
3540.665,-0.002393076
3538.737,-0.002513385
3536.808,-0.002590331
3534.88,-0.002607622
3532.951,-0.002609115
3531.023,-0.002600109
3529.094,-0.002617657
3527.166,-0.002667057
3525.237,-0.002704257
3523.309,-0.002737184
3521.38,-0.002780552
3519.452,-0.002778906
3517.523,-0.002734715
3515.595,-0.002741866
3513.667,-0.00279264
3511.738,-0.002821909
3509.81,-0.002806272
3507.881,-0.002770418
3505.953,-0.002805912
3504.024,-0.002939888
3502.096,-0.00309125
3500.167,-0.00318675
3498.239,-0.003228633
3496.31,-0.003226937
3494.382,-0.00319857
3492.453,-0.003221901
3490.525,-0.003287778
3488.596,-0.003340338
3486.668,-0.003415288
3484.74,-0.003531155
3482.811,-0.003646734
3480.883,-0.003696428
3478.954,-0.003639906
3477.026,-0.003544198
3475.097,-0.003518368
3473.169,-0.003604891
3471.24,-0.003779887
3469.312,-0.003977129
3467.383,-0.00413054
3465.455,-0.004215147
3463.526,-0.004254112
3461.598,-0.004283744
3459.669,-0.004316449
3457.741,-0.004394203
3455.813,-0.004498179
3453.884,-0.004537835
3451.956,-0.004578411
3450.027,-0.004707181
3448.099,-0.004841238
3446.17,-0.004872417
3444.242,-0.00480801
3442.313,-0.004776775
3440.385,-0.004880301
3438.456,-0.005064148
3436.528,-0.005242292
3434.599,-0.00536923
3432.671,-0.005397405
3430.742,-0.005354911
3428.814,-0.005296713
3426.885,-0.005220194
3424.957,-0.005202904
3423.029,-0.005397609
3421.1,-0.005730711
3419.172,-0.005917775
3417.243,-0.005903219
3415.315,-0.005904139
3413.386,-0.006000706
3411.458,-0.006076067
3409.529,-0.006154732
3407.601,-0.006333909
3405.672,-0.0064845
3403.744,-0.006577727
3401.815,-0.006753772
3399.887,-0.006885467
3397.958,-0.006773346
3396.03,-0.006592412
3394.102,-0.006583438
3392.173,-0.006614594
3390.245,-0.00659945
3388.316,-0.006677102
3386.388,-0.006787821
3384.459,-0.006837207
3382.531,-0.006816516
3380.602,-0.006720944
3378.674,-0.006728132
3376.745,-0.006910435
3374.817,-0.007073052
3372.888,-0.007241667
3370.96,-0.007499072
3369.031,-0.007639189
3367.103,-0.007625556
3365.175,-0.007638782
3363.246,-0.007628353
3361.318,-0.007477598
3359.389,-0.007318441
3357.461,-0.00729314
3355.532,-0.007319154
3353.604,-0.007309329
3351.675,-0.007266768
3349.747,-0.007125003
3347.818,-0.00688939
3345.89,-0.006732006
3343.961,-0.006692294
3342.033,-0.006642076
3340.104,-0.006516887
3338.176,-0.006338194
3336.248,-0.006191481
3334.319,-0.006219654
3332.391,-0.006412119
3330.462,-0.006518519
3328.534,-0.006467872
3326.605,-0.006333092
3324.677,-0.006081887
3322.748,-0.005935292
3320.82,-0.006062997
3318.891,-0.006040992
3316.963,-0.005559924
3315.034,-0.005116801
3313.106,-0.005140592
3311.177,-0.005221677
3309.249,-0.00505852
3307.321,-0.004847126
3305.392,-0.004710561
3303.464,-0.004604229
3301.535,-0.004443965
3299.607,-0.00433034
3297.678,-0.004306761
3295.75,-0.004238629
3293.821,-0.004179922
3291.893,-0.004126489
3289.964,-0.003978412
3288.036,-0.003936806
3286.107,-0.004177922
3284.179,-0.004457954
3282.25,-0.004511244
3280.322,-0.004434894
3278.394,-0.004338285
3276.465,-0.004087256
3274.537,-0.003774447
3272.608,-0.003746937
3270.68,-0.003979386
3268.751,-0.004187819
3266.823,-0.004401071
3264.894,-0.004803862
3262.966,-0.005175484
3261.037,-0.005166122
3259.109,-0.004921612
3257.18,-0.004804784
3255.252,-0.004874567
3253.323,-0.004899191
3251.395,-0.004878253
3249.467,-0.005028685
3247.538,-0.005203876
3245.61,-0.005308578
3243.681,-0.005569636
3241.753,-0.005876712
3239.824,-0.005935496
3237.896,-0.005782517
3235.967,-0.005561713
3234.039,-0.005429872
3232.11,-0.005529051
3230.182,-0.0057512
3228.253,-0.005981252
3226.325,-0.0060898
3224.396,-0.005927325
3222.468,-0.005792121
3220.54,-0.005852245
3218.611,-0.005821392
3216.683,-0.005769694
3214.754,-0.005867314
3212.826,-0.00592615
3210.897,-0.00588616
3208.969,-0.005810716
3207.04,-0.005691828
3205.112,-0.005623403
3203.183,-0.005739806
3201.255,-0.005941063
3199.326,-0.005826654
3197.398,-0.005360741
3195.469,-0.005100632
3193.541,-0.005191752
3191.613,-0.005231601
3189.684,-0.005107284
3187.756,-0.004977455
3185.827,-0.004946693
3183.899,-0.005022493
3181.97,-0.005051458
3180.042,-0.004955702
3178.113,-0.004816458
3176.185,-0.004635527
3174.256,-0.004437251
3172.328,-0.004330545
3170.399,-0.00436258
3168.471,-0.004480193
3166.542,-0.004524514
3164.614,-0.004390667
3162.686,-0.004133771
3160.757,-0.003899865
3158.829,-0.003839264
3156.9,-0.003945887
3154.972,-0.00402463
3153.043,-0.003930085
3151.115,-0.003773831
3149.186,-0.003764593
3147.258,-0.003856968
3145.329,-0.003851272
3143.401,-0.003764131
3141.472,-0.00368421
3139.544,-0.003571721
3137.615,-0.003481391
3135.687,-0.003480826
3133.759,-0.003410716
3131.83,-0.003187983
3129.902,-0.002997684
3127.973,-0.002950481
3126.045,-0.002958709
3124.116,-0.002954235
3122.188,-0.002928935
3120.259,-0.002816148
3118.331,-0.002582457
3116.402,-0.002375158
3114.474,-0.002307753
3112.545,-0.002304148
3110.617,-0.002274844
3108.688,-0.002171675
3106.76,-0.00197995
3104.832,-0.001779478
3102.903,-0.001669229
3100.975,-0.001650713
3099.046,-0.001621314
3097.118,-0.001496578
3095.189,-0.001355085
3093.261,-0.001292787
3091.332,-0.001237965
3089.404,-0.001116269
3087.475,-0.00097181
3085.547,-0.000875616
3083.618,-0.000830817
3081.69,-0.000763999
3079.761,-0.000625731
3077.833,-0.000457785
3075.905,-0.000364735
3073.976,-0.000379323
3072.048,-0.00038584
3070.119,-0.000291016
3068.191,-0.000139865
3066.262,-2.28E-05
3064.334,3.32E-05
3062.405,6.57E-05
3060.477,0.000116451
3058.548,0.000187144
3056.62,0.000246945
3054.691,0.00027769
3052.763,0.000285279
3050.834,0.000276887
3048.906,0.000273312
3046.978,0.000308489
3045.049,0.000370042
3043.121,0.000420592
3041.192,0.000462596
3039.264,0.000490428
3037.335,0.000496051
3035.407,0.000496881
3033.478,0.000484027
3031.55,0.000465032
3029.621,0.00047646
3027.693,0.000514218
3025.764,0.000545086
3023.836,0.000539436
3021.907,0.000514866
3019.979,0.000551333
3018.051,0.000655409
3016.122,0.000707833
3014.194,0.000661243
3012.265,0.000601152
3010.337,0.000583421
3008.408,0.000586247
3006.48,0.000583629
3004.551,0.000608176
3002.623,0.000703581
3000.694,0.000815474
2998.766,0.000869811
2996.837,0.000895049
2994.909,0.000942469
2992.98,0.000990646
2991.052,0.001034418
2989.124,0.00113072
2987.195,0.001259079
2985.267,0.001352965
2983.338,0.001427833
2981.41,0.00150965
2979.481,0.00159738
2977.553,0.0017015
2975.624,0.001826102
2973.696,0.001961168
2971.767,0.002088576
2969.839,0.002199031
2967.91,0.002301552
2965.982,0.002417476
2964.053,0.002554314
2962.125,0.002666685
2960.197,0.002713543
2958.268,0.002715393
2956.34,0.002679031
2954.411,0.002593582
2952.483,0.002500157
2950.554,0.002434318
2948.626,0.002378328
2946.697,0.002323542
2944.769,0.00229921
2942.84,0.002315475
2940.912,0.00233934
2938.983,0.002347017
2937.055,0.002333015
2935.126,0.002284585
2933.198,0.002203506
2931.27,0.002127776
2929.341,0.002081631
2927.413,0.002031408
2925.484,0.001951495
2923.556,0.001870218
2921.627,0.001806529
2919.699,0.001742147
2917.77,0.00167333
2915.842,0.001631157
2913.913,0.001617101
2911.985,0.001599095
2910.056,0.001574258
2908.128,0.001548538
2906.199,0.001509832
2904.271,0.001467155
2902.343,0.001438352
2900.414,0.001413627
2898.486,0.00138049
2896.557,0.001346421
2894.629,0.001324376
2892.7,0.001313133
2890.772,0.001303267
2888.843,0.001294206
2886.915,0.001295997
2884.986,0.001320871
2883.058,0.001368908
2881.129,0.001424249
2879.201,0.001470921
2877.272,0.001507624
2875.344,0.001548486
2873.416,0.001592132
2871.487,0.001605876
2869.559,0.001563372
2867.63,0.00147874
2865.702,0.001383399
2863.773,0.001292908
2861.845,0.001209029
2859.916,0.001134172
2857.988,0.001071576
2856.059,0.00101161
2854.131,0.000951938
2852.202,0.000910457
2850.274,0.000883714
2848.345,0.000856894
2846.417,0.000840061
2844.489,0.000842343
2842.56,0.000850513
2840.632,0.000852588
2838.703,0.000849657
2836.775,0.000844315
2834.846,0.000829661
2832.918,0.00080147
2830.989,0.000775096
2829.061,0.000767731
2827.132,0.000774525
2825.204,0.000778286
2823.275,0.000773566
2821.347,0.000770013
2819.418,0.000770791
2817.49,0.000766279
2815.562,0.000752484
2813.633,0.000738611
2811.705,0.000730962
2809.776,0.000724531
2807.848,0.000710141
2805.919,0.000688232
2803.991,0.000671639
2802.062,0.00066508
2800.134,0.000663472
2798.205,0.000661087
2796.277,0.000660594
2794.348,0.00066285
2792.42,0.000650691
2790.491,0.000627256
2788.563,0.00061419
2786.635,0.000606284
2784.706,0.000593997
2782.778,0.000583577
2780.849,0.00057549
2778.921,0.000563541
2776.992,0.00055281
2775.064,0.000547808
2773.135,0.000536818
2771.207,0.000515514
2769.278,0.000497943
2767.35,0.000487214
2765.421,0.000470266
2763.493,0.000453189
2761.564,0.000453111
2759.636,0.000459512
2757.708,0.000451557
2755.779,0.000434895
2753.851,0.000423416
2751.922,0.000414503
2749.994,0.000407351
2748.065,0.000412249
2746.137,0.00042295
2744.208,0.000419659
2742.28,0.000397221
2740.351,0.000372141
2738.423,0.000356648
2736.494,0.000343539
2734.566,0.000330534
2732.637,0.000330198
2730.709,0.000341778
2728.781,0.000345016
2726.852,0.000332218
2724.924,0.000309577
2722.995,0.000284036
2721.067,0.000266189
2719.138,0.000258004
2717.21,0.000256968
2715.281,0.000263029
2713.353,0.000263496
2711.424,0.000247307
2709.496,0.000230187
2707.567,0.000228607
2705.639,0.000230472
2703.71,0.000232078
2701.782,0.000238838
2699.854,0.000235937
2697.925,0.000227934
2695.997,0.00023213
2694.068,0.00023415
2692.14,0.000219025
2690.211,0.000202217
2688.283,0.000205635
2686.354,0.000221304
2684.426,0.000224904
2682.497,0.000221822
2680.569,0.00022322
2678.64,0.000218377
2676.712,0.000209339
2674.783,0.000209623
2672.855,0.000205195
2670.927,0.000184477
2668.998,0.000175076
2667.07,0.000183027
2665.141,0.000181654
2663.213,0.000175879
2661.284,0.000174947
2659.356,0.000174558
2657.427,0.000185331
2655.499,0.000202631
2653.57,0.000207111
2651.642,0.000199653
2649.713,0.000189294
2647.785,0.000175931
2645.856,0.000163112
2643.928,0.000159979
2642,0.000163811
2640.071,0.000169042
2638.143,0.000173678
2636.214,0.000171762
2634.286,0.000167385
2632.357,0.000162594
2630.429,0.000144494
2628.5,0.000116994
2626.572,0.000100579
2624.643,0.00010322
2622.715,0.000113266
2620.786,0.000121578
2618.858,0.000130148
2616.929,0.000122898
2615.001,9.99E-05
2613.073,0.000107311
2611.144,0.000141542
2609.216,0.00014698
2607.287,0.000115778
2605.359,8.00E-05
2603.43,5.17E-05
2601.502,3.01E-05
2599.573,4.02E-05
2597.645,8.67E-05
2595.716,9.74E-05
2593.788,3.53E-05
2591.859,-1.48E-05
2589.931,8.36E-06
2588.002,3.84E-05
2586.074,2.23E-05
2584.146,1.19E-05
2582.217,3.35E-05
2580.289,3.76E-05
2578.36,1.89E-05
2576.432,2.16E-05
2574.503,3.90E-05
2572.575,3.80E-05
2570.646,2.98E-05
2568.718,2.94E-05
2566.789,-1.04E-07
2564.861,-6.36E-05
2562.932,-7.94E-05
2561.004,-3.72E-05
2559.075,-4.58E-05
2557.147,-0.000110001
2555.219,-0.00010555
2553.29,-2.92E-05
2551.362,9.89E-06
2549.433,-7.77E-06
2547.505,-2.94E-05
2545.576,-3.90E-05
2543.648,-5.96E-05
2541.719,-0.00010348
2539.791,-0.000146956
2537.862,-0.000165225
2535.934,-0.000179508
2534.005,-0.000200466
2532.077,-0.000184528
2530.148,-0.000142505
2528.22,-0.000116264
2526.292,-7.47E-05
2524.363,-3.19E-05
2522.435,-7.22E-05
2520.506,-0.000140072
2518.578,-0.000127237
2516.649,-9.02E-05
2514.721,-9.00E-05
2512.792,-9.34E-05
2510.864,-9.67E-05
2508.935,-0.000122941
2507.007,-0.00015327
2505.078,-0.000135828
2503.15,-8.85E-05
2501.221,-7.94E-05
2499.293,-8.02E-05
2497.365,-3.50E-05
2495.436,-2.21E-05
2493.508,-9.61E-05
2491.579,-0.000152235
2489.651,-0.000144989
2487.722,-0.000137019
2485.794,-0.000155754
2483.865,-0.000175575
2481.937,-0.000170503
2480.008,-0.00017485
2478.08,-0.00021894
2476.151,-0.000254592
2474.223,-0.000253298
2472.294,-0.000257023
2470.366,-0.000260076
2468.438,-0.000217077
2466.509,-0.000176455
2464.581,-0.00018784
2462.652,-0.000218888
2460.724,-0.000250556
2458.795,-0.000273891
2456.867,-0.000280048
2454.938,-0.00028279
2453.01,-0.000278392
2451.081,-0.000273684
2449.153,-0.000275029
2447.224,-0.00024238
2445.296,-0.00020145
2443.367,-0.000232549
2441.439,-0.000325679
2439.51,-0.000385271
2437.582,-0.000357545
2435.654,-0.000307882
2433.725,-0.000319471
2431.797,-0.000364373
2429.868,-0.000342026
2427.94,-0.00028429
2426.011,-0.00030902
2424.083,-0.000364735
2422.154,-0.000359563
2420.226,-0.00034394
2418.297,-0.000376736
2416.369,-0.000408237
2414.44,-0.000378185
2412.512,-0.000331783
2410.583,-0.000320867
2408.655,-0.000320712
2406.727,-0.000289774
2404.798,-0.000234101
2402.87,-0.000224736
2400.941,-0.000291585
2399.013,-0.000352734
2397.084,-0.000355476
2395.156,-0.000345906
2393.227,-0.000357545
2391.299,-0.000355217
2389.37,-0.000252988
2387.442,4.13E-05
2385.513,0.000641825
2383.585,0.001713195
2381.656,0.003465633
2379.728,0.006068795
2377.8,0.009435224
2375.871,0.01323354
2373.943,0.01707759
2372.014,0.02066294
2370.086,0.02387949
2368.157,0.02675119
2366.229,0.02925675
2364.3,0.03122758
2362.372,0.03249257
2360.443,0.03293306
2358.515,0.03241776
2356.586,0.03084787
2354.658,0.02802323
2352.729,0.02360535
2350.801,0.01866448
2348.873,0.01625516
2346.944,0.0180229
2345.016,0.02180684
2343.087,0.02419188
2341.159,0.0246817
2339.23,0.02437895
2337.302,0.02380404
2335.373,0.02320867
2333.445,0.02280313
2331.516,0.02245325
2329.588,0.02169381
2327.659,0.02052731
2325.731,0.01947246
2323.802,0.01864346
2321.874,0.01758505
2319.946,0.0159828
2318.017,0.01407207
2316.089,0.01232159
2314.16,0.01090952
2312.232,0.009594404
2310.303,0.008228909
2308.375,0.006905277
2306.446,0.005695835
2304.518,0.004666726
2302.589,0.003867709
2300.661,0.003220868
2298.732,0.002607071
2296.804,0.002049041
2294.875,0.001631885
2292.947,0.00131277
2291.019,0.00099088
2289.09,0.000663031
2287.162,0.000354938
2285.233,8.77E-05
2283.305,-9.25E-05
2281.376,-0.000184942
2279.448,-0.000102496
2277.519,0.000192867
2275.591,0.000492397
2273.662,0.00065572
2271.734,0.000647087
2269.805,0.000455936
2267.877,0.000174662
2265.948,-0.000112175
2264.02,-0.000312073
2262.092,-0.000268199
2260.163,-8.07E-05
2258.235,-4.08E-05
2256.306,-9.51E-05
2254.378,-9.24E-05
2252.449,-0.000128686
2250.521,-0.000175627
2248.592,-0.000106534
2246.664,4.66E-05
2244.735,0.000211229
2242.807,0.000223661
2240.878,-5.26E-05
2238.95,-0.000429029
2237.021,-0.000617356
2235.093,-0.000494399
2233.165,-0.000196275
2231.236,-0.000117558
2229.308,-0.00044589
2227.379,-0.000895869
2225.451,-0.001155306
2223.522,-0.001131192
2221.594,-0.000819294
2219.665,-0.000405909
2217.737,-0.000222045
2215.808,-0.000411806
2213.88,-0.000552676
2211.951,-0.000226029
2210.023,0.00019279
2208.094,0.000377996
2206.166,0.000250027
2204.238,-0.000182872
2202.309,-0.000251228
2200.381,0.000465757
2198.452,0.001095684
2196.524,0.000505614
2194.595,-0.000763482
2192.667,-0.001158352
2190.738,-0.000522479
2188.81,7.17E-05
2186.881,-7.08E-05
2184.953,-0.000593729
2183.024,-0.000874221
2181.096,-0.001114564
2179.167,-0.00156999
2177.239,-0.001744674
2175.311,-0.00118706
2173.382,-0.000433684
2171.454,-0.000357235
2169.525,-0.000593263
2167.597,-0.000250245
2165.668,0.000338902
2163.74,6.50E-05
2161.811,-0.001579121
2159.883,-0.003279608
2157.954,-0.002846135
2156.026,-0.001340531
2154.097,-0.00069686
2152.169,-0.00061689
2150.24,-0.000489021
2148.312,-0.000276685
2146.384,-0.000392306
2144.455,-0.000718931
2142.527,-0.000844614
2140.598,-0.001044949
2138.67,-0.001201929
2136.741,-0.000948358
2134.813,-0.000719655
2132.884,-0.000694276
2130.956,-0.000550711
2129.027,-0.00045644
2127.099,-0.000539956
2125.17,-0.000510844
2123.242,-0.000386875
2121.313,-0.000397944
2119.385,-0.000441649
2117.457,-0.000349268
2115.528,-0.000257023
2113.6,-0.00044108
2111.671,-0.000792939
2109.743,-0.000928985
2107.814,-0.000826012
2105.886,-0.000693397
2103.957,-0.000655507
2102.029,-0.00066476
2100.1,-0.000550815
2098.172,-0.000436891
2096.243,-0.000560277
2094.315,-0.000701099
2092.386,-0.000621647
2090.458,-0.000536595
2088.53,-0.000515756
2086.601,-0.000472938
2084.673,-0.000515032
2082.744,-0.000619889
2080.816,-0.000662848
2078.887,-0.00061627
2076.959,-0.000531941
2075.03,-0.000599726
2073.102,-0.000792061
2071.173,-0.000687608
2069.245,-3.41E-05
2067.316,0.000804608
2065.388,0.001177127
2063.459,0.000808472
2061.531,0.000199005
2059.603,-1.64E-05
2057.674,0.000108968
2055.746,0.000312919
2053.817,0.000429505
2051.889,0.000346803
2049.96,0.000180178
2048.032,-0.000144213
2046.103,-0.000777591
2044.175,-0.001065504
2042.246,-0.000323247
2040.318,0.00082756
2038.389,0.001274059
2036.461,0.001059536
2034.532,0.001386878
2032.604,0.002146428
2030.676,0.001071836
2028.747,-0.001252058
2026.819,-0.001594441
2024.89,-3.24E-05
2022.962,0.001307136
2021.033,0.001003697
2019.105,-0.000942159
2017.176,-0.001788295
2015.248,-0.000271666
2013.319,0.00108193
2011.391,0.00124885
2009.462,0.001234053
2007.534,0.001156259
2005.605,0.001110373
2003.677,0.001216998
2001.749,0.000983693
1999.82,0.000408051
1997.892,6.83E-05
1995.963,5.81E-05
1994.035,-5.02E-05
1992.106,-0.000521755
1990.178,-0.001099382
1988.249,-0.001281843
1986.321,-0.001151278
1984.392,-0.001166252
1982.464,-0.000924335
1980.535,0.000155577
1978.607,0.00086924
1976.678,1.76E-05
1974.75,-0.000867349
1972.822,-0.000937302
1970.893,-0.001078157
1968.965,-0.001465415
1967.036,-0.001591552
1965.108,-0.001084458
1963.179,7.55E-05
1961.251,0.001410199
1959.322,0.001821137
1957.394,0.001198126
1955.465,0.000441114
1953.537,-8.07E-05
1951.608,-0.000438804
1949.68,-0.000725237
1947.751,-0.000751492
1945.823,-0.0004899
1943.895,-0.000251694
1941.966,-0.00017366
1940.038,-0.000318643
1938.109,-0.00046668
1936.181,-0.00036039
1934.252,-0.00017837
1932.324,-8.02E-05
1930.395,-7.64E-05
1928.467,-0.000230531
1926.538,-0.000475162
1924.61,-0.000543989
1922.681,-0.000427167
1920.753,-0.000376943
1918.824,-0.000452562
1916.896,-0.000530752
1914.968,-0.000448114
1913.039,-0.000281859
1911.111,-0.000360494
1909.182,-0.000565344
1907.254,-0.000494244
1905.325,-0.000244761
1903.397,-0.000127961
1901.468,-0.000170245
1899.54,-0.000270424
1897.611,-0.00037534
1895.683,-0.000502829
1893.754,-0.000645789
1891.826,-0.00066414
1889.897,-0.000544558
1887.969,-0.000505156
1886.041,-0.000582975
1884.112,-0.000611669
1882.184,-0.000568394
1880.255,-0.000497192
1878.327,-0.000420909
1876.398,-0.000405496
1874.47,-0.000439115
1872.541,-0.000452303
1870.613,-0.000450182
1868.684,-0.000497037
1866.756,-0.000591299
1864.827,-0.000621078
1862.899,-0.000572272
1860.97,-0.000557123
1859.042,-0.000576564
1857.114,-0.000567722
1855.185,-0.000554641
1853.257,-0.00058132
1851.328,-0.000637621
1849.4,-0.00066476
1847.471,-0.000643307
1845.543,-0.000628677
1843.614,-0.00063364
1841.686,-0.000604069
1839.757,-0.000519945
1837.829,-0.000435805
1835.9,-0.000425047
1833.972,-0.000485712
1832.043,-0.000533234
1830.115,-0.000519324
1828.187,-0.000498898
1826.258,-0.000524909
1824.33,-0.00057129
1822.401,-0.000577856
1820.473,-0.000534268
1818.544,-0.000492176
1816.616,-0.000468439
1814.687,-0.000463836
1812.759,-0.00048959
1810.83,-0.00050438
1808.902,-0.000496623
1806.973,-0.000504432
1805.045,-0.000518187
1803.116,-0.000520514
1801.188,-0.000525943
1799.26,-0.000531579
1797.331,-0.000520669
1795.403,-0.000505828
1793.474,-0.000513429
1791.546,-0.000537061
1789.617,-0.000552056
1787.689,-0.000557019
1785.76,-0.000564362
1783.832,-0.000565758
1781.903,-0.000545851
1779.975,-0.000521031
1778.046,-0.000524702
1776.118,-0.000556657
1774.189,-0.000578063
1772.261,-0.000572686
1770.333,-0.000560587
1768.404,-0.000551539
1766.476,-0.000550453
1764.547,-0.000557226
1762.619,-0.000564
1760.69,-0.000582871
1758.762,-0.000614202
1756.833,-0.000632141
1754.905,-0.000630952
1752.976,-0.000628988
1751.048,-0.000631986
1749.119,-0.000629711
1747.191,-0.000628419
1745.262,-0.000638293
1743.334,-0.000644083
1741.406,-0.000643618
1739.477,-0.000656179
1737.549,-0.000668741
1735.62,-0.000664709
1733.692,-0.000666673
1731.763,-0.000691175
1729.835,-0.000722187
1727.906,-0.000739863
1725.978,-0.000744205
1724.049,-0.000747668
1722.121,-0.000754128
1720.192,-0.000760847
1718.264,-0.000774749
1716.335,-0.000801208
1714.407,-0.000817331
1712.479,-0.000805962
1710.55,-0.000784981
1708.622,-0.000764309
1706.693,-0.000731852
1704.765,-0.000680216
1702.836,-0.000602776
1700.908,-0.000494606
1698.979,-0.000346682
1697.051,-0.000135828
1695.122,0.000138434
1693.194,0.000457931
1691.265,0.000835133
1689.337,0.001278291
1687.408,0.001751191
1685.48,0.002224373
1683.552,0.002704947
1681.623,0.003212523
1679.695,0.003752703
1677.766,0.004319177
1675.838,0.004934561
1673.909,0.005640917
1671.981,0.006440185
1670.052,0.007310973
1668.124,0.008246585
1666.195,0.009256694
1664.267,0.01036835
1662.338,0.01159097
1660.41,0.01287741
1658.481,0.01412071
1656.553,0.01516993
1654.625,0.01587397
1652.696,0.01612334
1650.768,0.01594483
1648.839,0.01551331
1646.911,0.01497319
1644.982,0.01437585
1643.054,0.01375058
1641.125,0.01313363
1639.197,0.01255054
1637.268,0.01199032
1635.34,0.01141783
1633.411,0.01083008
1631.483,0.01024973
1629.554,0.009669436
1627.626,0.009071204
1625.698,0.008453999
1623.769,0.007832265
1621.841,0.007245006
1619.912,0.006726047
1617.984,0.006250275
1616.055,0.005769174
1614.127,0.005286456
1612.198,0.004828748
1610.27,0.004411111
1608.341,0.004048584
1606.413,0.003752624
1604.484,0.003525652
1602.556,0.003355846
1600.627,0.003232891
1598.699,0.003158832
1596.771,0.003140866
1594.842,0.003184177
1592.914,0.00326956
1590.985,0.003371211
1589.057,0.003495276
1587.128,0.003659393
1585.2,0.003862381
1583.271,0.004094547
1581.343,0.004347806
1579.414,0.004618061
1577.486,0.004916339
1575.557,0.005251214
1573.629,0.005607561
1571.7,0.00597916
1569.772,0.006391899
1567.844,0.00687753
1565.915,0.007453812
1563.987,0.008137033
1562.058,0.008958115
1560.13,0.009935503
1558.201,0.01102835
1556.273,0.01217147
1554.344,0.01331489
1552.416,0.01437256
1550.487,0.01522979
1548.559,0.01579815
1546.63,0.01603496
1544.702,0.01594821
1542.773,0.01558235
1540.845,0.01499821
1538.917,0.01425712
1536.988,0.01343424
1535.06,0.01260101
1533.131,0.01178435
1531.203,0.0109941
1529.274,0.01025694
1527.346,0.009592446
1525.417,0.008994055
1523.489,0.008458222
1521.56,0.007993864
1519.632,0.007584211
1517.703,0.007178023
1515.775,0.006731147
1513.846,0.006239272
1511.918,0.005731873
1509.99,0.005252237
1508.061,0.004822125
1506.133,0.004425964
1504.204,0.004054777
1502.276,0.003738917
1500.347,0.003497468
1498.419,0.003289826
1496.49,0.003060775
1494.562,0.002797114
1492.633,0.002528771
1490.705,0.002295306
1488.776,0.002110191
1486.848,0.001964964
1484.919,0.001850382
1482.991,0.001767903
1481.063,0.001736741
1479.134,0.001774661
1477.206,0.001885245
1475.277,0.002061785
1473.349,0.002272433
1471.42,0.00245556
1469.492,0.00256111
1467.563,0.002591212
1465.635,0.002595274
1463.706,0.002629989
1461.778,0.002723129
1459.849,0.002857979
1457.921,0.00298393
1455.992,0.003050138
1454.064,0.003037365
1452.135,0.00297095
1450.207,0.002900584
1448.279,0.002852012
1446.35,0.002818035
1444.422,0.002789376
1442.493,0.002759547
1440.565,0.002714455
1438.636,0.002633895
1436.708,0.002507212
1434.779,0.00236331
1432.851,0.002252683
1430.922,0.002194322
1428.994,0.002182329
1427.065,0.00220845
1425.137,0.002258797
1423.208,0.00232742
1421.28,0.002407454
1419.352,0.002479928
1417.423,0.002538378
1415.495,0.002594988
1413.566,0.002668065
1411.638,0.002778148
1409.709,0.002933368
1407.781,0.00312238
1405.852,0.00332037
1403.924,0.003498329
1401.995,0.003639345
1400.067,0.003738629
1398.138,0.003790199
1396.21,0.003784376
1394.281,0.00371675
1392.353,0.003606821
1390.425,0.003486482
1388.496,0.003357777
1386.568,0.003188506
1384.639,0.002955833
1382.711,0.002677051
1380.782,0.002400505
1378.854,0.002166173
1376.925,0.00198881
1374.997,0.001867229
1373.068,0.001793506
1371.14,0.001763641
1369.211,0.001758962
1367.283,0.001738638
1365.354,0.001681178
1363.426,0.001603122
1361.498,0.001534432
1359.569,0.001491285
1357.641,0.00147235
1355.712,0.001470921
1353.784,0.001481051
1351.855,0.001502922
1349.927,0.001542823
1347.998,0.001597796
1346.07,0.001655556
1344.141,0.001711453
1342.213,0.001763407
1340.284,0.001808738
1338.356,0.001851552
1336.427,0.001890159
1334.499,0.001927469
1332.571,0.001976666
1330.642,0.002038976
1328.714,0.00210798
1326.785,0.002181964
1324.857,0.002259552
1322.928,0.00233377
1321,0.002398292
1319.071,0.002457721
1317.143,0.002518408
1315.214,0.002580588
1313.286,0.002637333
1311.357,0.002679578
1309.429,0.00271607
1307.5,0.002758583
1305.572,0.00278414
1303.644,0.002772989
1301.715,0.002744698
1299.787,0.00271693
1297.858,0.002692262
1295.93,0.002671347
1294.001,0.002647047
1292.073,0.002611681
1290.144,0.002565901
1288.216,0.002517236
1286.287,0.002471206
1284.359,0.002429086
1282.43,0.002391499
1280.502,0.002356439
1278.573,0.002326457
1276.645,0.002302879
1274.717,0.002279693
1272.788,0.002258979
1270.86,0.002248207
1268.931,0.002243914
1267.003,0.002242457
1265.074,0.002244928
1263.146,0.002244486
1261.217,0.00223348
1259.289,0.002222422
1257.36,0.002227755
1255.432,0.002244746
1253.503,0.002259448
1251.575,0.002270663
1249.646,0.002276986
1247.718,0.002270741
1245.79,0.002252683
1243.861,0.002231528
1241.933,0.002205224
1240.004,0.00216763
1238.076,0.002118151
1236.147,0.002050082
1234.219,0.001965458
1232.29,0.001873598
1230.362,0.001771282
1228.433,0.001662936
1226.505,0.001565035
1224.576,0.001482973
1222.648,0.00140916
1220.719,0.001343798
1218.791,0.001293583
1216.863,0.001251291
1214.934,0.001208951
1213.006,0.001172559
1211.077,0.001145514
1209.149,0.001122986
1207.22,0.001101705
1205.292,0.001081619
1203.363,0.001059925
1201.435,0.001030863
1199.506,0.000998533
1197.578,0.000980087
1195.649,0.000984523
1193.721,0.001001621
1191.792,0.001018668
1189.864,0.001031174
1187.936,0.001043707
1186.007,0.001067346
1184.079,0.001105468
1182.15,0.001153923
1180.222,0.001218945
1178.293,0.001310329
1176.365,0.001422275
1174.436,0.001530224
1172.508,0.001601485
1170.579,0.001619023
1168.651,0.001596029
1166.722,0.001555318
1164.794,0.001505858
1162.865,0.001446143
1160.937,0.001375271
1159.009,0.00129862
1157.08,0.001226862
1155.152,0.001165447
1153.223,0.001115148
1151.295,0.0010736
1149.366,0.00103504
1147.438,0.000994823
1145.509,0.000954843
1143.581,0.00092597
1141.652,0.000916164
1139.724,0.000927967
1137.795,0.00096107
1135.867,0.001007225
1133.938,0.001065815
1132.01,0.00113643
1130.082,0.001201683
1128.153,0.00124776
1126.225,0.001268295
1124.296,0.001256561
1122.368,0.001221281
1120.439,0.001184811
1118.511,0.001162514
1116.582,0.001157271
1114.654,0.001169081
1112.725,0.001201241
1110.797,0.001249318
1108.868,0.001297425
1106.94,0.001331439
1105.011,0.001338086
1103.083,0.00130402
1101.155,0.001236286
1099.226,0.00116158
1097.298,0.001103729
1095.369,0.001070642
1093.441,0.001057252
1091.512,0.001051933
1089.584,0.001042487
1087.655,0.001024765
1085.727,0.000996121
1083.798,0.000949447
1081.87,0.000891521
1079.941,0.000831243
1078.013,0.000764671
1076.084,0.000694895
1074.156,0.000624534
1072.228,0.000546745
1070.299,0.000472987
1068.371,0.00042567
1066.442,0.000398205
1064.514,0.000369265
1062.585,0.000342866
1060.657,0.000334886
1058.728,0.000343332
1056.8,0.000355949
1054.871,0.000367037
1052.943,0.000371882
1051.014,0.000363384
1049.086,0.000343384
1047.157,0.000318022
1045.229,0.000290072
1043.301,0.000262511
1041.372,0.000239563
1039.444,0.000221071
1037.515,0.000195587
1035.587,0.000160497
1033.658,0.000134939
1031.73,0.000127637
1029.801,0.000120645
1027.873,0.000104281
1025.944,9.43E-05
1024.016,0.0001012
1022.087,0.000118522
1020.159,0.000143044
1018.23,0.000171684
1016.302,0.000186574
1014.374,0.000176656
1012.445,0.000156949
1010.517,0.000140584
1008.588,0.000117435
1006.66,8.13E-05
1004.731,4.54E-05
1002.803,1.57E-05
1000.874,-1.18E-05
998.946,-2.89E-05
997.017,-3.27E-05
995.089,-3.82E-05
993.16,-5.01E-05
991.232,-5.09E-05
989.303,-3.35E-05
987.375,-1.12E-05
985.447,1.30E-05
983.518,4.15E-05
981.59,5.89E-05
979.661,5.42E-05
977.733,4.14E-05
975.804,4.06E-05
973.876,5.11E-05
971.947,5.75E-05
970.019,5.68E-05
968.09,5.83E-05
966.162,6.20E-05
964.233,6.06E-05
962.305,5.86E-05
960.376,7.19E-05
958.448,9.79E-05
956.52,0.000111195
954.591,0.000102857
952.663,8.94E-05
950.734,8.49E-05
948.806,9.12E-05
946.877,0.000104281
944.949,0.000120775
943.02,0.000142034
941.092,0.00016508
939.163,0.000178417
937.235,0.000186523
935.306,0.000198902
933.378,0.000205039
931.449,0.000197555
929.521,0.000186315
927.593,0.000181965
925.664,0.000188387
923.736,0.000194965
921.807,0.000182975
919.879,0.000157752
917.95,0.000140092
916.022,0.000127844
914.093,0.000114509
912.165,0.000107958
910.236,0.000103453
908.308,8.96E-05
906.379,7.63E-05
904.451,7.52E-05
902.522,7.52E-05
900.594,6.39E-05
898.666,4.41E-05
896.737,3.10E-05
894.809,4.81E-05
892.88,9.08E-05
890.952,0.000111013
889.023,9.45E-05
887.095,8.42E-05
885.166,9.09E-05
883.238,8.75E-05
881.309,7.16E-05
879.381,6.14E-05
877.452,6.90E-05
875.524,8.82E-05
873.595,9.89E-05
871.667,9.35E-05
869.739,7.75E-05
867.81,5.41E-05
865.882,3.15E-05
863.953,2.22E-05
862.025,2.11E-05
860.096,2.42E-05
858.168,4.78E-05
856.239,8.51E-05
854.311,8.95E-05
852.382,6.14E-05
850.454,6.24E-05
848.525,9.04E-05
846.597,8.61E-05
844.668,5.65E-05
842.74,5.30E-05
840.812,7.78E-05
838.883,0.000101148
836.955,0.000128258
835.026,0.000177951
833.098,0.000228659
831.169,0.000246556
829.241,0.000246064
827.312,0.000267614
825.384,0.000300511
823.455,0.00032512
821.527,0.000347218
819.598,0.000329213
817.67,0.00024881
815.741,0.000179556
813.813,0.000168783
811.885,0.000164174
809.956,0.00016363
808.028,0.000210193
806.099,0.0002593
804.171,0.000258419
802.242,0.0002284
800.314,0.00022133
798.385,0.000252798
796.457,0.000264428
794.528,0.000216953
792.6,0.000178883
790.671,0.000197192
788.743,0.000213482
786.814,0.00021198
784.886,0.000216383
782.958,0.000230394
781.029,0.000267407
779.101,0.000290382
777.172,0.000268598
775.244,0.000239252
773.315,0.000253239
771.387,0.000302972
769.458,0.000291755
767.53,0.000196519
765.601,0.000140014
763.673,0.000186056
761.744,0.000242334
759.816,0.000262252
757.887,0.000345275
755.959,0.000500638
754.031,0.000553717
752.102,0.000450831
750.174,0.00037341
748.245,0.000367944
746.317,0.000313022
744.388,0.000278648
742.46,0.000375872
740.531,0.000494237
738.603,0.000493563
736.674,0.000394759
734.746,0.000289683
732.817,0.00024508
730.889,0.000250778
728.96,0.000189423
727.032,5.53E-05
725.104,4.50E-05
723.175,0.000276473
721.247,0.000604962
719.318,0.000769028
717.39,0.000693832
715.461,0.000551799
713.533,0.000475915
711.604,0.000404294
709.676,0.000342296
707.747,0.000475293
705.819,0.000747297
703.89,0.000875076
701.962,0.00091536
700.033,0.001094257
698.105,0.001334892
696.177,0.001544511
694.248,0.001853502
692.32,0.002325546
690.391,0.002811834
688.463,0.003012862
686.534,0.002842293
684.606,0.002728678
682.677,0.002885079
680.749,0.002993939
678.82,0.002956407
676.892,0.002997614
674.963,0.00318196
673.035,0.00377367
671.106,0.006612226
669.178,0.01192878
667.25,0.01288021
665.321,0.0073928
663.393,0.003341838
661.464,0.002172937
659.536,0.001815783
657.607,0.002278548
655.679,0.003431452
653.75,0.004346028
651.822,0.004689543
649.893,0.004430306
647.965,0.003700432
646.036,0.003190435
644.108,0.002852012
642.179,0.001941302
640.251,0.001371609
638.323,0.0017488
636.394,0.001341617
634.466,7.03E-05
632.537,-0.000260904
630.609,5.56E-05
628.68,-0.000207556
626.752,-0.001225678
624.823,-0.001684958
622.895,-0.001202394
620.966,-0.002082238
619.038,-0.003808627
617.109,-0.003959277
615.181,-0.003262806
613.252,-0.002795264
611.324,-0.000999704
609.396,0.002925862
607.467,0.005777385
605.539,0.005597676
603.61,0.00407751
601.682,0.003117426
599.753,0.002911008
597.825,0.00146222
595.896,-0.002041274
593.968,-0.004565142
592.039,-0.003455763
590.111,-0.001207712
588.182,-0.000935701
586.254,-0.000527236
584.325,0.003526096
582.397,0.009456389
580.469,0.01207168
578.54,0.01170087
576.612,0.012797
574.683,0.01265287
572.755,0.004497781
570.826,-0.005101144
568.898,-0.004665799
566.969,0.000331674
565.041,0.002903815
563.112,0.006111244
561.184,0.007718049
559.255,0.004852699
557.327,0.003256519
555.398,0.006366602
553.47,0.01025582
551.542,0.01121909
549.613,0.006486743
547.685,-0.001390901
545.756,-0.001790409
543.828,0.006081264
541.899,0.010114
539.971,0.007570988
538.042,0.004541751
536.114,0.001764005
534.185,-0.001498384
532.257,-0.003776192
530.328,-0.003512976
528.4,-0.001459171
526.471,0.001356314
524.543,0.006863119
522.615,0.01170635
520.686,0.01116118
518.758,0.009973563
516.829,0.01014722
514.901,0.008043911
512.972,0.005804484
511.044,0.005359543
509.115,0.004371364
507.187,0.003766986
505.258,0.004934823
503.33,0.003658375
501.401,-0.001630341
499.473,-0.004345769
497.544,-0.000569584
495.616,0.004395473
493.688,0.005065254
491.759,0.00357503
489.831,0.006038504
487.902,0.009338385
485.974,0.005064233
484.045,-0.000939214
482.117,0.001530172
480.188,0.008728406
478.26,0.01354783
476.331,0.01328491
474.403,0.008407625
472.474,0.003698527
470.546,0.002086391
468.617,0.002144242
466.689,0.003686596
464.76,0.008449565
462.832,0.01376255
460.904,0.01257961
458.975,0.005403206
457.047,-0.000135621
455.118,-0.000511464
453.19,0.002740322
451.261,0.005612649
449.333,0.006439975
447.404,0.008055646
445.476,0.01134921
443.547,0.0133119
441.619,0.01067161
439.69,0.006721158
437.762,0.008585623
435.833,0.01247411
433.905,0.0114031
431.977,0.008460518
430.048,0.005944833
428.12,0.00271917
426.191,0.001864915
424.263,0.00492765
422.334,0.00785749
420.406,0.007028645
418.477,0.003640155
416.549,0.001242049
414.62,0.001793324
412.692,0.004812153
410.763,0.006867168
408.835,0.004832307
406.906,0.001096074
404.978,0.000958813
403.05,0.00465783
401.121,0.007937496
399.193,0.009211821
