Wavenumbers [1/cm],absorbance
3997.712,-0.000183389
3995.783,-0.000178887
3993.855,-0.000170607
3991.926,-0.000177697
3989.998,-0.000196016
3988.069,-0.000205797
3986.141,-0.000195861
3984.212,-0.000176248
3982.284,-0.000170917
3980.355,-0.000182251
3978.427,-0.000181164
3976.499,-0.000162741
3974.57,-0.000154719
3972.642,-0.000165742
3970.713,-0.000186391
3968.785,-0.000200208
3966.856,-0.000189444
3964.928,-0.000154615
3962.999,-0.000125218
3961.071,-0.000134534
3959.142,-0.00017749
3957.214,-0.000225253
3955.285,-0.000242794
3953.357,-0.000220389
3951.428,-0.000188875
3949.5,-0.000167243
3947.572,-0.000165483
3945.643,-0.000192859
3943.715,-0.000221631
3941.786,-0.000219044
3939.858,-0.00019555
3937.929,-0.000173505
3936.001,-0.0001586
3934.072,-0.000162844
3932.144,-0.000185925
3930.215,-0.000203468
3928.287,-0.00020352
3926.358,-0.000194412
3924.43,-0.000189392
3922.501,-0.000188875
3920.573,-0.000186443
3918.645,-0.00018815
3916.716,-0.000188357
3914.788,-0.000172004
3912.859,-0.000157617
3910.931,-0.000168537
3909.002,-0.000187064
3907.074,-0.000195809
3905.145,-0.000204244
3903.217,-0.000209522
3901.288,-0.000194153
3899.36,-0.000171435
3897.431,-0.000166829
3895.503,-0.000180336
3893.574,-0.000200001
3891.646,-0.000205641
3889.718,-0.000183493
3887.789,-0.000157203
3885.861,-0.000158497
3883.932,-0.000180491
3882.004,-0.000195913
3880.075,-0.000198966
3878.147,-0.000195913
3876.218,-0.000200311
3874.29,-0.000215111
3872.361,-0.000225512
3870.433,-0.00022753
3868.504,-0.000219768
3866.576,-0.000203934
3864.647,-0.000197569
3862.719,-0.000203261
3860.791,-0.000209367
3858.862,-0.00021982
3856.934,-0.000244502
3855.005,-0.00027001
3853.077,-0.000271718
3851.148,-0.000246002
3849.22,-0.000217129
3847.291,-0.000216715
3845.363,-0.000241966
3843.434,-0.000246882
3841.506,-0.000218837
3839.577,-0.000196896
3837.649,-0.00019229
3835.72,-0.000199121
3833.792,-0.000223339
3831.864,-0.000241604
3829.935,-0.000230065
3828.007,-0.000200518
3826.078,-0.000181164
3824.15,-0.000195085
3822.221,-0.000229393
3820.293,-0.000247141
3818.364,-0.000242691
3816.436,-0.000241863
3814.507,-0.000255264
3812.579,-0.000261163
3810.65,-0.000241449
3808.722,-0.00021687
3806.793,-0.000217853
3804.865,-0.000240725
3802.937,-0.00025899
3801.008,-0.000264629
3799.08,-0.000270166
3797.151,-0.000280462
3795.223,-0.000283669
3793.294,-0.000264319
3791.366,-0.00024533
3789.437,-0.000258938
3787.509,-0.000271407
3785.58,-0.000254954
3783.652,-0.000240207
3781.723,-0.000242173
3779.795,-0.000249573
3777.866,-0.000252729
3775.938,-0.00025247
3774.01,-0.000261007
3772.081,-0.000277512
3770.153,-0.000282479
3768.224,-0.000271304
3766.296,-0.000256092
3764.367,-0.000246416
3762.439,-0.000237465
3760.51,-0.000215887
3758.582,-0.000199794
3756.653,-0.00021568
3754.725,-0.000251746
3752.796,-0.000284601
3750.868,-0.000297225
3748.939,-0.000288274
3747.011,-0.000273787
3745.083,-0.000252522
3743.154,-0.000197931
3741.226,-0.000110105
3739.297,-2.46E-05
3737.369,4.77E-05
3735.44,0.000120128
3733.512,0.000191987
3731.583,0.000250933
3729.655,0.000287559
3727.726,0.000295822
3725.798,0.000272458
3723.869,0.000231249
3721.941,0.000168939
3720.012,5.55E-05
3718.084,-8.90E-05
3716.156,-0.000195395
3714.227,-0.000226857
3712.299,-0.000206728
3710.37,-0.000158342
3708.442,-7.08E-05
3706.513,3.81E-05
3704.585,0.000113706
3702.656,0.000120179
3700.728,5.31E-05
3698.799,-4.90E-05
3696.871,-0.000117351
3694.942,-0.000131429
3693.014,-0.000148146
3691.085,-0.000212265
3689.157,-0.000305037
3687.229,-0.000394582
3685.3,-0.000446304
3683.372,-0.000468439
3681.443,-0.000513223
3679.515,-0.000570876
3677.586,-0.000626248
3675.658,-0.000689572
3673.729,-0.000735625
3671.801,-0.000767772
3669.872,-0.000798676
3667.944,-0.000813662
3666.015,-0.000819036
3664.087,-0.000817331
3662.158,-0.000804825
3660.23,-0.000818829
3658.302,-0.000891787
3656.373,-0.000974238
3654.445,-0.001006005
3652.516,-0.000996398
3650.588,-0.000976253
3648.659,-0.000960859
3646.731,-0.000940195
3644.802,-0.000925214
3642.874,-0.000948874
3640.945,-0.000964888
3639.017,-0.000922734
3637.088,-0.000894112
3635.16,-0.000928365
3633.231,-0.00092666
3631.303,-0.000831489
3629.375,-0.000742861
3627.446,-0.000750665
3625.518,-0.000823118
3623.589,-0.000868072
3621.661,-0.000854173
3619.732,-0.000878199
3617.804,-0.001006935
3615.875,-0.001131553
3613.947,-0.001173842
3612.018,-0.001177095
3610.09,-0.001127371
3608.161,-0.001031211
3606.233,-0.000991594
3604.304,-0.001030281
3602.376,-0.001050682
3600.448,-0.001022224
3598.519,-0.001016439
3596.591,-0.001034878
3594.662,-0.001024445
3592.734,-0.000987152
3590.805,-0.000957966
3588.877,-0.000977131
3586.948,-0.001043193
3585.02,-0.001105321
3583.091,-0.00113207
3581.163,-0.001152724
3579.234,-0.001211739
3577.306,-0.001278488
3575.377,-0.001292735
3573.449,-0.00128236
3571.521,-0.001310904
3569.592,-0.001349924
3567.664,-0.001317253
3565.735,-0.001219896
3563.807,-0.001191861
3561.878,-0.001286592
3559.95,-0.001369433
3558.021,-0.001379806
3556.093,-0.001406538
3554.164,-0.001485795
3552.236,-0.001546828
3550.307,-0.001510766
3548.379,-0.001418768
3546.45,-0.001406383
3544.522,-0.001523097
3542.594,-0.001643957
3540.665,-0.001648857
3538.737,-0.001585001
3536.808,-0.001539038
3534.88,-0.001548788
3532.951,-0.001606356
3531.023,-0.001647516
3529.094,-0.001655046
3527.166,-0.001656129
3525.237,-0.001630908
3523.309,-0.001599857
3521.38,-0.00162183
3519.452,-0.001655562
3517.523,-0.001676861
3515.595,-0.00176468
3513.667,-0.001883515
3511.738,-0.001924699
3509.81,-0.001934853
3507.881,-0.001945058
3505.953,-0.001915473
3504.024,-0.00194042
3502.096,-0.002031483
3500.167,-0.002055135
3498.239,-0.002087493
3496.31,-0.002243427
3494.382,-0.002376393
3492.453,-0.002357496
3490.525,-0.002290243
3488.596,-0.002277832
3486.668,-0.002274123
3484.74,-0.002271548
3482.811,-0.002334221
3480.883,-0.002397555
3478.954,-0.002384735
3477.026,-0.002387464
3475.097,-0.002486927
3473.169,-0.00262728
3471.24,-0.002706418
3469.312,-0.002698906
3467.383,-0.002700759
3465.455,-0.002758534
3463.526,-0.002837185
3461.598,-0.00292369
3459.669,-0.002940557
3457.741,-0.002890674
3455.813,-0.002982002
3453.884,-0.003186904
3451.956,-0.00322627
3450.027,-0.003103741
3448.099,-0.00300555
3446.17,-0.0029874
3444.242,-0.003034856
3442.313,-0.003107134
3440.385,-0.003197953
3438.456,-0.003331501
3436.528,-0.003482675
3434.599,-0.003639444
3432.671,-0.003759922
3430.742,-0.00377301
3428.814,-0.003778707
3426.885,-0.003876313
3424.957,-0.00400601
3423.029,-0.004169256
3421.1,-0.00433808
3419.172,-0.004401839
3417.243,-0.004358377
3415.315,-0.004261239
3413.386,-0.004201816
3411.458,-0.004259393
3409.529,-0.004359556
3407.601,-0.004469689
3405.672,-0.004665184
3403.744,-0.004763717
3401.815,-0.004629534
3399.887,-0.004596545
3397.958,-0.004780103
3396.03,-0.004914036
3394.102,-0.004975305
3392.173,-0.005073257
3390.245,-0.00510273
3388.316,-0.004910145
3386.388,-0.004667847
3384.459,-0.004701497
3382.531,-0.004914189
3380.602,-0.005044754
3378.674,-0.005186227
3376.745,-0.005334354
3374.817,-0.005256562
3372.888,-0.005080625
3370.96,-0.005092343
3369.031,-0.005212777
3367.103,-0.005154406
3365.175,-0.004963942
3363.246,-0.004994856
3361.318,-0.005225565
3359.389,-0.005305868
3357.461,-0.005150262
3355.532,-0.004907637
3353.604,-0.004747997
3351.675,-0.004859464
3349.747,-0.005141922
3347.818,-0.005328626
3345.89,-0.005394899
3343.961,-0.005331132
3342.033,-0.005232164
3340.104,-0.005232471
3338.176,-0.005160034
3336.248,-0.004970699
3334.319,-0.004781179
3332.391,-0.004642698
3330.462,-0.004617292
3328.534,-0.004641366
3326.605,-0.00462016
3324.677,-0.004608993
3322.748,-0.004558021
3320.82,-0.004360684
3318.891,-0.004285948
3316.963,-0.004370525
3315.034,-0.00418305
3313.106,-0.003879648
3311.177,-0.00386641
3309.249,-0.003925057
3307.321,-0.003815812
3305.392,-0.003718757
3303.464,-0.003693912
3301.535,-0.003608023
3299.607,-0.003531001
3297.678,-0.003474252
3295.75,-0.003355031
3293.821,-0.003300212
3291.893,-0.003367617
3289.964,-0.003440867
3288.036,-0.003456636
3286.107,-0.003418729
3284.179,-0.003352719
3282.25,-0.003316704
3280.322,-0.003315214
3278.394,-0.003314187
3276.465,-0.003302113
3274.537,-0.003169995
3272.608,-0.002887588
3270.68,-0.002734046
3268.751,-0.002888051
3266.823,-0.003199341
3264.894,-0.003536906
3262.966,-0.003866615
3261.037,-0.004126284
3259.109,-0.004269697
3257.18,-0.004279233
3255.252,-0.004239091
3253.323,-0.004276669
3251.395,-0.004291433
3249.467,-0.004115002
3247.538,-0.003926288
3245.61,-0.0040135
3243.681,-0.004247345
3241.753,-0.004341668
3239.824,-0.004306094
3237.896,-0.004245089
3235.967,-0.004173308
3234.039,-0.004086846
3232.11,-0.00406433
3230.182,-0.004216429
3228.253,-0.004369141
3226.325,-0.004288665
3224.396,-0.004167359
3222.468,-0.004269185
3220.54,-0.004463233
3218.611,-0.00442321
3216.683,-0.004146489
3214.754,-0.003945579
3212.826,-0.003989338
3210.897,-0.004176743
3208.969,-0.004284154
3207.04,-0.004194843
3205.112,-0.004008011
3203.183,-0.00391264
3201.255,-0.003925057
3199.326,-0.003877134
3197.398,-0.003779939
3195.469,-0.003710647
3193.541,-0.003687804
3191.613,-0.003776808
3189.684,-0.003859739
3187.756,-0.003771368
3185.827,-0.003600989
3183.899,-0.003515287
3181.97,-0.003480826
3180.042,-0.003421503
3178.113,-0.003423866
3176.185,-0.003447031
3174.256,-0.00342402
3172.328,-0.003456327
3170.399,-0.003493049
3168.471,-0.00345304
3166.542,-0.003386316
3164.614,-0.00331989
3162.686,-0.003351846
3160.757,-0.003503218
3158.829,-0.003578756
3156.9,-0.00348324
3154.972,-0.003361401
3153.043,-0.003369364
3151.115,-0.003422787
3149.186,-0.003373268
3147.258,-0.003244872
3145.329,-0.003084773
3143.401,-0.002953001
3141.472,-0.002903685
3139.544,-0.002838677
3137.615,-0.002702354
3135.687,-0.002582045
3133.759,-0.00252193
3131.83,-0.00251215
3129.902,-0.002548334
3127.973,-0.002595786
3126.045,-0.002593058
3124.116,-0.002504635
3122.188,-0.002381697
3120.259,-0.002311254
3118.331,-0.002276493
3116.402,-0.002199903
3114.474,-0.002079455
3112.545,-0.001977528
3110.617,-0.001946038
3108.688,-0.001948305
3106.76,-0.001905164
3104.832,-0.001842171
3102.903,-0.001803041
3100.975,-0.001729978
3099.046,-0.001595473
3097.118,-0.001462989
3095.189,-0.001373458
3093.261,-0.001307084
3091.332,-0.001239875
3089.404,-0.00115133
3087.475,-0.001049494
3085.547,-0.001004352
3083.618,-0.001010086
3081.69,-0.000981057
3079.761,-0.000921132
3077.833,-0.000843632
3075.905,-0.000709731
3073.976,-0.00056431
3072.048,-0.000482867
3070.119,-0.000441959
3068.191,-0.000394633
3066.262,-0.000326662
3064.334,-0.000238241
3062.405,-0.000163155
3060.477,-0.000116057
3058.548,-8.78E-05
3056.62,-8.66E-05
3054.691,-8.40E-05
3052.763,-5.11E-05
3050.834,-3.47E-06
3048.906,4.58E-05
3046.978,6.76E-05
3045.049,3.73E-05
3043.121,-3.62E-06
3041.192,-8.75E-06
3039.264,8.75E-06
3037.335,3.95E-05
3035.407,8.19E-05
3033.478,0.000100501
3031.55,9.47E-05
3029.621,9.13E-05
3027.693,9.16E-05
3025.764,9.87E-05
3023.836,0.000109745
3021.907,0.000113447
3019.979,0.000110185
3018.051,0.000105006
3016.122,0.00011223
3014.194,0.000137191
3012.265,0.000154722
3010.337,0.000152858
3008.408,0.000151925
3006.48,0.000149077
3004.551,0.000137554
3002.623,0.000147342
3000.694,0.000188051
2998.766,0.000233658
2996.837,0.000278726
2994.909,0.000334627
2992.98,0.000388101
2991.052,0.000439637
2989.124,0.000524404
2987.195,0.000629252
2985.267,0.00070874
2983.338,0.000774396
2981.41,0.000854067
2979.481,0.000929135
2977.553,0.000974638
2975.624,0.001017837
2973.696,0.001103496
2971.767,0.00122559
2969.839,0.001340449
2967.91,0.001427288
2965.982,0.001500117
2964.053,0.001569555
2962.125,0.001624116
2960.197,0.001665639
2958.268,0.00170085
2956.34,0.001694951
2954.411,0.001630768
2952.483,0.001556773
2950.554,0.001508689
2948.626,0.001482558
2946.697,0.001477181
2944.769,0.001480558
2942.84,0.001478947
2940.912,0.001489935
2938.983,0.001525885
2937.055,0.001559865
2935.126,0.001558436
2933.198,0.001532795
2931.27,0.001513884
2929.341,0.001510066
2927.413,0.001526275
2925.484,0.001549889
2923.556,0.001541264
2921.627,0.001493259
2919.699,0.00142656
2917.77,0.001352679
2915.842,0.001291947
2913.913,0.001252874
2911.985,0.001207964
2910.056,0.001151016
2908.128,0.001094153
2906.199,0.001034547
2904.271,0.000985587
2902.343,0.000958839
2900.414,0.000937851
2898.486,0.000905684
2896.557,0.00086177
2894.629,0.00082826
2892.7,0.00082603
2890.772,0.000842577
2888.843,0.000851706
2886.915,0.000861381
2884.986,0.000898084
2883.058,0.00094457
2881.129,0.000975598
2879.201,0.001002218
2877.272,0.001027178
2875.344,0.001040334
2873.416,0.001041761
2871.487,0.001029539
2869.559,0.001000843
2867.63,0.000963327
2865.702,0.000919536
2863.773,0.000863897
2861.845,0.000814178
2859.916,0.000792989
2857.988,0.000785495
2856.059,0.00076436
2854.131,0.000726761
2852.202,0.000694091
2850.274,0.000674387
2848.345,0.000649006
2846.417,0.00061852
2844.489,0.000604781
2842.56,0.000608125
2840.632,0.000610095
2838.703,0.000604832
2836.775,0.000596434
2834.846,0.000591742
2832.918,0.000601152
2830.989,0.000612169
2829.061,0.000600218
2827.132,0.000578963
2825.204,0.000577745
2823.275,0.000588891
2821.347,0.000591535
2819.418,0.000586117
2817.49,0.000573546
2815.562,0.000552214
2813.633,0.000533475
2811.705,0.00052697
2809.776,0.000531142
2807.848,0.000539281
2805.919,0.000543246
2803.991,0.000535678
2802.062,0.000516629
2800.134,0.000497529
2798.205,0.000488199
2796.277,0.000493538
2794.348,0.000507688
2792.42,0.000509346
2790.491,0.000495896
2788.563,0.000488562
2786.635,0.000488717
2784.706,0.000477911
2782.778,0.000457102
2780.849,0.000446504
2778.921,0.000449147
2776.992,0.000449872
2775.064,0.000444249
2773.135,0.000436087
2771.207,0.000425567
2769.278,0.000419374
2767.35,0.000423131
2765.421,0.000425904
2763.493,0.00042041
2761.564,0.00041186
2759.636,0.000398594
2757.708,0.000387427
2755.779,0.000383851
2753.851,0.000374602
2751.922,0.000362296
2749.994,0.000354809
2748.065,0.000345456
2746.137,0.000335845
2744.208,0.000324835
2742.28,0.000309292
2740.351,0.000296521
2738.423,0.000290952
2736.494,0.00029318
2734.566,0.000297558
2732.637,0.000294268
2730.709,0.000289787
2728.781,0.000291393
2726.852,0.000288595
2724.924,0.000279581
2722.995,0.000275592
2721.067,0.000270593
2719.138,0.000258082
2717.21,0.000248654
2715.281,0.000245132
2713.353,0.000238268
2711.424,0.000225888
2709.496,0.000220967
2707.567,0.000230576
2705.639,0.000242334
2703.71,0.00024192
2701.782,0.000231741
2699.854,0.000227727
2697.925,0.000229514
2695.997,0.000220501
2694.068,0.000207008
2692.14,0.000204496
2690.211,0.000209105
2688.283,0.000213223
2686.354,0.000214829
2684.426,0.000212006
2682.497,0.000202864
2680.569,0.000191365
2678.64,0.000192298
2676.712,0.000201232
2674.783,0.000195146
2672.855,0.000180385
2670.927,0.000178054
2668.998,0.000184762
2667.07,0.000186807
2665.141,0.0001801
2663.213,0.000172616
2661.284,0.000171528
2659.356,0.000169586
2657.427,0.00016231
2655.499,0.00016016
2653.57,0.000164925
2651.642,0.000165391
2649.713,0.000159798
2647.785,0.000150061
2645.856,0.000133566
2643.928,0.000113551
2642,0.0001012
2640.071,9.82E-05
2638.143,9.33E-05
2636.214,9.37E-05
2634.286,0.00011526
2632.357,0.000136725
2630.429,0.000136285
2628.5,0.00012875
2626.572,0.000117305
2624.643,9.64E-05
2622.715,9.33E-05
2620.786,0.000111246
2618.858,0.000100113
2616.929,5.66E-05
2615.001,4.00E-05
2613.073,6.83E-05
2611.144,0.000106741
2609.216,0.000122432
2607.287,0.000106586
2605.359,7.40E-05
2603.43,4.83E-05
2601.502,5.01E-05
2599.573,7.10E-05
2597.645,7.99E-05
2595.716,7.51E-05
2593.788,6.74E-05
2591.859,5.99E-05
2589.931,6.63E-05
2588.002,8.34E-05
2586.074,9.52E-05
2584.146,7.95E-05
2582.217,1.53E-05
2580.289,-5.25E-05
2578.36,-6.89E-05
2576.432,-4.11E-05
2574.503,1.17E-05
2572.575,5.10E-05
2570.646,4.33E-05
2568.718,1.69E-05
2566.789,-1.18E-05
2564.861,-5.98E-05
2562.932,-9.73E-05
2561.004,-7.36E-05
2559.075,-1.27E-05
2557.147,1.63E-05
2555.219,2.46E-06
2553.29,-5.44E-06
2551.362,2.05E-05
2549.433,5.96E-05
2547.505,9.37E-05
2545.576,9.31E-05
2543.648,2.80E-05
2541.719,-3.42E-05
2539.791,-1.74E-05
2537.862,3.37E-05
2535.934,4.55E-05
2534.005,1.91E-05
2532.077,-1.19E-05
2530.148,-4.57E-05
2528.22,-7.14E-05
2526.292,-5.22E-05
2524.363,-2.07E-07
2522.435,1.02E-05
2520.506,-5.63E-05
2518.578,-0.000115902
2516.649,-8.99E-05
2514.721,-3.22E-05
2512.792,-2.08E-05
2510.864,-4.21E-05
2508.935,-4.29E-05
2507.007,-2.06E-05
2505.078,-3.93E-06
2503.15,1.22E-06
2501.221,-2.58E-05
2499.293,-0.000100271
2497.365,-0.000159273
2495.436,-0.000156841
2493.508,-0.000136863
2491.579,-0.00014442
2489.651,-0.00016419
2487.722,-0.000151458
2485.794,-0.000100995
2483.865,-5.13E-05
2481.937,-2.57E-05
2480.008,-2.03E-05
2478.08,-4.38E-05
2476.151,-9.24E-05
2474.223,-0.000108242
2472.294,-7.91E-05
2470.366,-5.54E-05
2468.438,-4.14E-05
2466.509,-2.65E-05
2464.581,-3.02E-05
2462.652,-5.03E-05
2460.724,-6.84E-05
2458.795,-8.55E-05
2456.867,-0.000105654
2454.938,-0.000137433
2453.01,-0.00018163
2451.081,-0.000204969
2449.153,-0.000184735
2447.224,-0.000153166
2445.296,-0.000156116
2443.367,-0.000174333
2441.439,-0.000166467
2439.51,-0.00015358
2437.582,-0.000161964
2435.654,-0.000180233
2433.725,-0.000183234
2431.797,-0.000160308
2429.868,-0.000145455
2427.94,-0.000162119
2426.011,-0.000165587
2424.083,-0.000130808
2422.154,-0.000113366
2420.226,-0.000159014
2418.297,-0.000213921
2416.369,-0.000199794
2414.44,-0.000150941
2412.512,-0.00013971
2410.583,-0.000162327
2408.655,-0.000171383
2406.727,-0.000144834
2404.798,-0.00013883
2402.87,-0.000175627
2400.941,-0.00018608
2399.013,-0.000147214
2397.084,-0.000101616
2395.156,-8.83E-05
2393.227,-0.000102186
2391.299,-0.000119007
2389.37,-0.000109898
2387.442,-2.67E-05
2385.513,0.000191314
2383.585,0.000642473
2381.656,0.001429365
2379.728,0.002581447
2377.8,0.004033221
2375.871,0.005647841
2373.943,0.007276777
2372.014,0.008795576
2370.086,0.01014317
2368.157,0.01131996
2366.229,0.01230883
2364.3,0.01307425
2362.372,0.01359308
2360.443,0.01378991
2358.515,0.01358613
2356.586,0.01295672
2354.658,0.0117898
2352.729,0.009916911
2350.801,0.007823831
2348.873,0.006808579
2346.944,0.007553498
2345.016,0.009162961
2343.087,0.01018777
2341.159,0.01037744
2339.23,0.01020796
2337.302,0.009940032
2335.373,0.009694926
2333.445,0.009561642
2331.516,0.009456442
2329.588,0.009142551
2327.659,0.008631144
2325.731,0.008182613
2323.802,0.007849503
2321.874,0.00741189
2319.946,0.006739061
2318.017,0.005954622
2316.089,0.005230778
2314.16,0.004616857
2312.232,0.004039675
2310.303,0.003466155
2308.375,0.002917601
2306.446,0.002383638
2304.518,0.001907917
2302.589,0.001545265
2300.661,0.001241582
2298.732,0.000951315
2296.804,0.000710633
2294.875,0.000544412
2292.947,0.00042523
2291.019,0.000266889
2289.09,4.95E-05
2287.162,-0.000107776
2285.233,-0.000155909
2283.305,-0.000217336
2281.376,-0.000369546
2279.448,-0.000459957
2277.519,-0.000358787
2275.591,-0.00018163
2273.662,-0.00010731
2271.734,-0.000256299
2269.805,-0.000501019
2267.877,-0.000469473
2265.948,-0.000136139
2264.02,0.000138331
2262.092,0.000222651
2260.163,0.000136699
2258.235,-0.000167967
2256.306,-0.000532148
2254.378,-0.000683886
2252.449,-0.000564672
2250.521,-0.000371615
2248.592,-0.000318436
2246.664,-0.000279013
2244.735,-0.000120198
2242.807,-0.000119732
2240.878,-0.000333646
2238.95,-0.000543783
2237.021,-0.000917774
2235.093,-0.00132964
2233.165,-0.001155254
2231.236,-0.000518756
2229.308,-0.000179301
2227.379,-0.000307779
2225.451,-0.000628367
2223.522,-0.000968246
2221.594,-0.00099428
2219.665,-0.000574599
2217.737,-8.76E-05
2215.808,6.76E-05
2213.88,-0.000111399
2211.951,-0.000191359
2210.023,-0.000224943
2208.094,-0.000595125
2206.166,-0.000956003
2204.238,-0.000973515
2202.309,-0.000798211
2200.381,-0.000476455
2198.452,-0.000277357
2196.524,-0.000349734
2194.595,2.49E-05
2192.667,0.000816641
2190.738,0.000823981
2188.81,1.99E-05
2186.881,-0.000387495
2184.953,1.84E-05
2183.024,0.000359627
2181.096,0.000341363
2179.167,0.000222003
2177.239,-0.000392513
2175.311,-0.001276578
2173.382,-0.001935162
2171.454,-0.002138756
2169.525,-0.001534137
2167.597,-0.000682387
2165.668,-0.000245175
2163.74,-0.000130601
2161.811,-5.74E-05
2159.883,0.000195146
2157.954,-0.000252263
2156.026,-0.00144333
2154.097,-0.001303007
2152.169,0.000327918
2150.24,0.001385424
2148.312,0.000807409
2146.384,-0.000522117
2144.455,-0.001295419
2142.527,-0.000844821
2140.598,-0.000132205
2138.67,-0.000593212
2136.741,-0.00149565
2134.813,-0.001442298
2132.884,-0.000900157
2130.956,-0.000605465
2129.027,-0.000302088
2127.099,-5.78E-05
2125.17,-0.000304105
2123.242,-0.000674323
2121.313,-0.000622112
2119.385,-0.000435753
2117.457,-0.000563638
2115.528,-0.000877424
2113.6,-0.001013805
2111.671,-0.000959671
2109.743,-0.000872671
2107.814,-0.000646564
2105.886,-0.000374357
2103.957,-0.000469628
2102.029,-0.000795782
2100.1,-0.000834021
2098.172,-0.000605723
2096.243,-0.000346889
2094.315,-8.95E-05
2092.386,7.49E-05
2090.458,0.000150527
2088.53,0.000167178
2086.601,1.75E-05
2084.673,-0.000183234
2082.744,-0.000243777
2080.816,-0.000296138
2078.887,-0.000485918
2076.959,-0.000667345
2075.03,-0.000584836
2073.102,-0.000205797
2071.173,5.56E-05
2069.245,-0.000114712
2067.316,-0.000545644
2065.388,-0.001032399
2063.459,-0.001309356
2061.531,-0.001032089
2059.603,-0.000398565
2057.674,3.88E-05
2055.746,0.000117409
2053.817,-9.30E-05
2051.889,-0.000569894
2049.96,-0.000926402
2048.032,-0.000700479
2046.103,-9.22E-05
2044.175,0.000576604
2042.246,0.001439468
2040.318,0.002314252
2038.389,0.002685152
2036.461,0.002240713
2034.532,0.000952301
2032.604,-0.000126875
2030.676,-6.32E-06
2028.747,-9.48E-05
2026.819,-0.001166717
2024.89,-0.001282566
2022.962,0.000431889
2021.033,0.002044568
2019.105,0.001940782
2017.176,0.000949266
2015.248,0.000443731
2013.319,0.000419529
2011.391,0.000386986
2009.462,0.000358643
2007.534,0.000718697
2005.605,0.000916242
2003.677,0.000172538
2001.749,-0.000434408
1999.82,-0.000248745
1997.892,-0.000178835
1995.963,-0.000506552
1994.035,-0.00071154
1992.106,-0.000460474
1990.178,-0.000210143
1988.249,-0.000500398
1986.321,-0.000785343
1984.392,-0.00046094
1982.464,0.000302039
1980.535,0.000783394
1978.607,0.000291988
1976.678,-0.000334939
1974.75,0.000143743
1972.822,0.000706614
1970.893,0.00047024
1968.965,0.00059239
1967.036,0.001687467
1965.108,0.002656892
1963.179,0.002654053
1961.251,0.001958125
1959.322,0.000976843
1957.394,-4.87E-05
1955.465,-0.000550091
1953.537,-0.000425512
1951.608,-0.000235447
1949.68,-0.000323144
1947.751,-0.00069195
1945.823,-0.000923044
1943.895,-0.000768495
1941.966,-0.000833814
1940.038,-0.001171054
1938.109,-0.000881041
1936.181,-0.0001527
1934.252,-6.54E-05
1932.324,-0.000529149
1930.395,-0.000758934
1928.467,-0.000656696
1926.538,-0.000509551
1924.61,-0.000433787
1922.681,-0.000414651
1920.753,-0.000469938
1918.824,-0.00052584
1916.896,-0.000439218
1914.968,-0.000270166
1913.039,-0.000178732
1911.111,-0.000210247
1909.182,-0.00026018
1907.254,-0.000188875
1905.325,-3.82E-05
1903.397,2.82E-05
1901.468,-8.29E-05
1899.54,-0.000299087
1897.611,-0.000434253
1895.683,-0.000417133
1893.754,-0.000322782
1891.826,-0.000212627
1889.897,-0.00018401
1887.969,-0.00025723
1886.041,-0.000237723
1884.112,-0.000119007
1882.184,-0.000130653
1880.255,-0.000268406
1878.327,-0.00036815
1876.398,-0.000402392
1874.47,-0.000384909
1872.541,-0.000305813
1870.613,-0.000237103
1868.684,-0.000244709
1866.756,-0.000284963
1864.827,-0.000283307
1862.899,-0.000251642
1860.97,-0.000271097
1859.042,-0.000319212
1857.114,-0.000320712
1855.185,-0.000298363
1853.257,-0.000287291
1851.328,-0.000295672
1849.4,-0.000310883
1847.471,-0.000320402
1845.543,-0.000332611
1843.614,-0.000336025
1841.686,-0.000326662
1839.757,-0.000305244
1837.829,-0.000286722
1835.9,-0.000302295
1833.972,-0.000311866
1832.043,-0.000277564
1830.115,-0.000250607
1828.187,-0.000270269
1826.258,-0.000309589
1824.33,-0.000346889
1822.401,-0.000369132
1820.473,-0.000353096
1818.544,-0.000325679
1816.616,-0.000319005
1814.687,-0.000311555
1812.759,-0.000302709
1810.83,-0.000297069
1808.902,-0.00028041
1806.973,-0.000271821
1805.045,-0.000288326
1803.116,-0.000312745
1801.188,-0.000328472
1799.26,-0.000324127
1797.331,-0.000313883
1795.403,-0.000318022
1793.474,-0.000324023
1791.546,-0.000330852
1789.617,-0.000343992
1787.689,-0.000348803
1785.76,-0.000344871
1783.832,-0.000343164
1781.903,-0.000340112
1779.975,-0.000325368
1778.046,-0.000315487
1776.118,-0.000339543
1774.189,-0.000383823
1772.261,-0.00041403
1770.333,-0.000418685
1768.404,-0.000404823
1766.476,-0.000387754
1764.547,-0.000376426
1762.619,-0.000381599
1760.69,-0.000402082
1758.762,-0.000405754
1756.833,-0.000388892
1754.905,-0.000392202
1752.976,-0.000429133
1751.048,-0.000470507
1749.119,-0.000485918
1747.191,-0.000478885
1745.262,-0.000479816
1743.334,-0.000500295
1741.406,-0.000519324
1739.477,-0.000524961
1737.549,-0.000536957
1735.62,-0.000566378
1733.692,-0.000583699
1731.763,-0.00057372
1729.835,-0.00056979
1727.906,-0.000583492
1725.978,-0.000595693
1724.049,-0.000608825
1722.121,-0.000628781
1720.192,-0.000653078
1718.264,-0.000679286
1716.335,-0.00068492
1714.407,-0.000650493
1712.479,-0.000597348
1710.55,-0.000557019
1708.622,-0.000528167
1706.693,-0.000480954
1704.765,-0.000389927
1702.836,-0.000258886
1700.908,-7.46E-05
1698.979,0.000209209
1697.051,0.000600141
1695.122,0.001075702
1693.194,0.001614243
1691.265,0.002186075
1689.337,0.002774579
1687.408,0.00336315
1685.48,0.003951868
1683.552,0.004585803
1681.623,0.005278569
1679.695,0.005990314
1677.766,0.006702255
1675.838,0.007419948
1673.909,0.008117437
1671.981,0.008753577
1670.052,0.009351266
1668.124,0.009986039
1666.195,0.01071584
1664.267,0.01156899
1662.338,0.01252374
1660.41,0.01348884
1658.481,0.01435632
1656.553,0.01502948
1654.625,0.01542919
1652.696,0.01555629
1650.768,0.01550025
1648.839,0.01532937
1646.911,0.01506588
1644.982,0.01474764
1643.054,0.01438495
1641.125,0.01392996
1639.197,0.0133576
1637.268,0.01269368
1635.34,0.01197787
1633.411,0.01127636
1631.483,0.01063694
1629.554,0.01002371
1627.626,0.009409353
1625.698,0.008827064
1623.769,0.008294365
1621.841,0.007805462
1619.912,0.007347409
1617.984,0.006890154
1616.055,0.006439502
1614.127,0.00602202
1612.198,0.005614642
1610.27,0.005204475
1608.341,0.004825816
1606.413,0.004493361
1604.484,0.004199816
1602.556,0.003949021
1600.627,0.003741293
1598.699,0.003573438
1596.771,0.003451569
1594.842,0.003374342
1592.914,0.00333396
1590.985,0.003337377
1589.057,0.003395239
1587.128,0.003506028
1585.2,0.00365895
1583.271,0.00384645
1581.343,0.004061779
1579.414,0.00428681
1577.486,0.004518445
1575.557,0.004787105
1573.629,0.005101267
1571.7,0.005434318
1569.772,0.005777725
1567.844,0.00615375
1565.915,0.006587363
1563.987,0.007081265
1562.058,0.007623568
1560.13,0.008236455
1558.201,0.008964986
1556.273,0.009806778
1554.344,0.01070987
1552.416,0.01160259
1550.487,0.01240202
1548.559,0.01304922
1546.63,0.01352532
1544.702,0.0138258
1542.773,0.01393052
1540.845,0.01380613
1538.917,0.01345053
1536.988,0.01290256
1535.06,0.01221795
1533.131,0.01147154
1531.203,0.01072996
1529.274,0.01002585
1527.346,0.009379647
1525.417,0.00880543
1523.489,0.008310329
1521.56,0.007902698
1519.632,0.007571567
1517.703,0.007254851
1515.775,0.006869719
1513.846,0.006387091
1511.918,0.005853544
1509.99,0.005332183
1508.061,0.004855761
1506.133,0.004444715
1504.204,0.004101733
1502.276,0.003796963
1500.347,0.003508637
1498.419,0.003240871
1496.49,0.002999986
1494.562,0.002775438
1492.633,0.002556996
1490.705,0.002351286
1488.776,0.002166381
1486.848,0.002008938
1484.919,0.001893409
1482.991,0.001830158
1481.063,0.001813209
1479.134,0.001838814
1477.206,0.001907111
1475.277,0.00200808
1473.349,0.002138701
1471.42,0.002295619
1469.492,0.002434995
1467.563,0.002520907
1465.635,0.00259853
1463.706,0.002730188
1461.778,0.002901209
1459.849,0.003051129
1457.921,0.003135912
1455.992,0.003146107
1454.064,0.003107519
1452.135,0.003055743
1450.207,0.003006685
1448.279,0.002959586
1446.35,0.0029231
1444.422,0.002909991
1442.493,0.002899125
1440.565,0.002843022
1438.636,0.002731335
1436.708,0.002613712
1434.779,0.002537103
1432.851,0.002500339
1430.922,0.00249055
1428.994,0.002501875
1427.065,0.002527729
1425.137,0.002576213
1423.208,0.002651553
1421.28,0.002737248
1419.352,0.002823585
1417.423,0.002904493
1415.495,0.002958179
1413.566,0.002966258
1411.638,0.002938997
1409.709,0.002905613
1407.781,0.002882421
1405.852,0.002873639
1403.924,0.002884584
1401.995,0.00291304
1400.067,0.002949526
1398.138,0.002981584
1396.21,0.002983617
1394.281,0.002937016
1392.353,0.002858969
1390.425,0.002779997
1388.496,0.002706537
1386.568,0.00262689
1384.639,0.00252825
1382.711,0.002398214
1380.782,0.002240999
1378.854,0.002083764
1376.925,0.001949232
1374.997,0.001852254
1373.068,0.001810636
1371.14,0.001822827
1369.211,0.001849057
1367.283,0.001844065
1365.354,0.001809258
1363.426,0.001776897
1361.498,0.001750749
1359.569,0.001720497
1357.641,0.001702072
1355.712,0.001709686
1353.784,0.001734687
1351.855,0.001774141
1349.927,0.001838034
1347.998,0.001927469
1346.07,0.002029301
1344.141,0.002126553
1342.213,0.002199422
1340.284,0.002231164
1338.356,0.002222109
1336.427,0.002195831
1334.499,0.002173587
1332.571,0.002147884
1330.642,0.002112324
1328.714,0.00208998
1326.785,0.00209989
1324.857,0.002132822
1322.928,0.002177307
1321,0.002234052
1319.071,0.002298377
1317.143,0.002353186
1315.214,0.002387672
1313.286,0.002404019
1311.357,0.002403602
1309.429,0.002392904
1307.5,0.002385512
1305.572,0.002380202
1303.644,0.002371769
1301.715,0.002366537
1299.787,0.002367579
1297.858,0.002370702
1295.93,0.002375075
1294.001,0.002386449
1292.073,0.002406596
1290.144,0.002430856
1288.216,0.002455977
1286.287,0.002480214
1284.359,0.002504453
1282.43,0.00253252
1280.502,0.002566656
1278.573,0.002602592
1276.645,0.002631421
1274.717,0.002653272
1272.788,0.00267765
1270.86,0.002710001
1268.931,0.002749882
1267.003,0.002795212
1265.074,0.002835075
1263.146,0.002858995
1261.217,0.002869574
1259.289,0.002875385
1257.36,0.002882421
1255.432,0.002890942
1253.503,0.002898916
1251.575,0.002903033
1249.646,0.002889769
1247.718,0.002851386
1245.79,0.002803836
1243.861,0.002766503
1241.933,0.002744125
1240.004,0.002734487
1238.076,0.002732872
1236.147,0.002722686
1234.219,0.002684162
1232.29,0.002608425
1230.362,0.002494351
1228.433,0.002354825
1226.505,0.002222396
1224.576,0.00211568
1222.648,0.002020745
1220.719,0.001926585
1218.791,0.001841726
1216.863,0.001769775
1214.934,0.001709504
1213.006,0.001662546
1211.077,0.001628611
1209.149,0.001608422
1207.22,0.00160676
1205.292,0.001623518
1203.363,0.001649372
1201.435,0.001673434
1199.506,0.001686687
1197.578,0.001686869
1195.649,0.001677878
1193.721,0.001660753
1191.792,0.001641317
1189.864,0.001634119
1187.936,0.001638875
1186.007,0.001643188
1184.079,0.001653634
1182.15,0.001686402
1180.222,0.001737806
1178.293,0.001796833
1176.365,0.001858077
1174.436,0.001907423
1172.508,0.001930927
1170.579,0.001931681
1168.651,0.001921437
1166.722,0.001905706
1164.794,0.001881761
1162.865,0.00185228
1160.937,0.001825323
1159.009,0.001800368
1157.08,0.001768995
1155.152,0.001731257
1153.223,0.001694146
1151.295,0.001654829
1149.366,0.001612969
1147.438,0.001583195
1145.509,0.001570984
1143.581,0.00156358
1141.652,0.001551188
1139.724,0.00153677
1137.795,0.001527834
1135.867,0.001523288
1133.938,0.001517937
1132.01,0.001517209
1130.082,0.001518118
1128.153,0.001497597
1126.225,0.001450922
1124.296,0.001409316
1122.368,0.001393033
1120.439,0.001391553
1118.511,0.001397552
1116.582,0.001409134
1114.654,0.001413004
1112.725,0.001394955
1110.797,0.001357197
1108.868,0.00131303
1106.94,0.001265465
1105.011,0.001205914
1103.083,0.001128748
1101.155,0.001034132
1099.226,0.000928927
1097.298,0.000826937
1095.369,0.000743019
1093.441,0.000679313
1091.512,0.0006334
1089.584,0.000616342
1087.655,0.000628293
1085.727,0.000650043
1083.798,0.000674646
1081.87,0.000705448
1079.941,0.000732336
1078.013,0.000739804
1076.084,0.000717738
1074.156,0.000664042
1072.228,0.000594386
1070.299,0.000536041
1068.371,0.000505951
1066.442,0.000499265
1064.514,0.00049841
1062.585,0.000502064
1060.657,0.000525026
1058.728,0.000567092
1056.8,0.000613205
1054.871,0.00065738
1052.943,0.000696891
1051.014,0.000713045
1049.086,0.000694454
1047.157,0.000654139
1045.229,0.000607114
1043.301,0.000567221
1041.372,0.000546227
1039.444,0.000532464
1037.515,0.000512275
1035.587,0.000494004
1033.658,0.000483586
1031.73,0.000480347
1029.801,0.000485763
1027.873,0.000495274
1025.944,0.000503645
1024.016,0.000507817
1022.087,0.000504629
1020.159,0.000497243
1018.23,0.000486722
1016.302,0.000470966
1014.374,0.000453422
1012.445,0.000432537
1010.517,0.000394267
1008.588,0.000335508
1006.66,0.000275307
1004.731,0.000221899
1002.803,0.000163268
1000.874,9.53E-05
998.946,1.91E-05
997.017,-7.00E-05
995.089,-0.000163879
993.16,-0.00024445
991.232,-0.000293551
989.303,-0.000287084
987.375,-0.00021863
985.447,-0.000122941
983.518,-4.12E-05
981.59,1.83E-05
979.661,6.91E-05
977.733,0.000111013
975.804,0.000140273
973.876,0.00017606
971.947,0.000224956
970.019,0.000265568
968.09,0.000287766
966.162,0.000297324
964.233,0.000300562
962.305,0.000314654
960.376,0.000352788
958.448,0.000397532
956.52,0.000426603
954.591,0.000442202
952.663,0.000455651
950.734,0.00047462
948.806,0.000498669
946.877,0.000526322
944.949,0.000557553
943.02,0.000587543
941.092,0.000613879
939.163,0.000643147
937.235,0.000673505
935.306,0.000685821
933.378,0.000661061
931.449,0.000607736
929.521,0.000562815
927.593,0.000537544
925.664,0.000504215
923.736,0.000461637
921.807,0.000432096
919.879,0.000410072
917.95,0.000384344
916.022,0.000368177
914.093,0.000365949
912.165,0.000359394
910.236,0.000339886
908.308,0.000319576
906.379,0.000303308
904.451,0.00028313
902.522,0.000266163
900.594,0.000260776
898.666,0.00026391
896.737,0.000274012
894.809,0.000270411
892.88,0.000236869
890.952,0.000200119
889.023,0.00018357
887.095,0.000172176
885.166,0.000151718
883.238,0.000142422
881.309,0.000158089
879.381,0.000170855
877.452,0.000162543
875.524,0.00014338
873.595,0.000117098
871.667,0.000101899
869.739,0.000113395
867.81,0.00012137
865.882,0.000101045
863.953,6.51E-05
862.025,3.66E-05
860.096,2.78E-05
858.168,2.55E-05
856.239,9.03E-06
854.311,-1.43E-05
852.382,-1.90E-05
850.454,-5.54E-06
848.525,-4.25E-06
846.597,-2.43E-05
844.668,-3.52E-05
842.74,-1.97E-05
840.812,-1.14E-06
838.883,3.91E-06
836.955,1.07E-05
835.026,4.11E-05
833.098,8.54E-05
831.169,0.000104954
829.241,0.000103427
827.312,0.000119687
825.384,0.000132789
823.455,8.90E-05
821.527,2.24E-05
819.598,1.03E-05
817.67,3.52E-05
815.741,3.44E-05
813.813,8.49E-06
811.885,-1.24E-05
809.956,-9.27E-06
808.028,3.35E-05
806.099,8.69E-05
804.171,0.000105654
802.242,0.000127792
800.314,0.00018774
798.385,0.000223117
796.457,0.000208898
794.528,0.000205842
792.6,0.000213482
790.671,0.000184788
788.743,0.000153816
786.814,0.000173341
784.886,0.000231016
782.958,0.000276395
781.029,0.000267277
779.101,0.000221097
777.172,0.000194085
775.244,0.000186937
773.315,0.00018616
771.387,0.000261605
769.458,0.000422665
767.53,0.000523549
765.601,0.000494185
763.673,0.000420955
761.744,0.000356026
759.816,0.000301935
757.887,0.000310017
755.959,0.00038994
754.031,0.000487085
752.102,0.000589668
750.174,0.00065458
748.245,0.000605429
746.317,0.00050761
744.388,0.000501623
742.46,0.000573468
740.531,0.000582903
738.603,0.000494574
736.674,0.000466301
734.746,0.000599907
732.817,0.00072282
730.889,0.000676409
728.96,0.000549259
727.032,0.000457802
725.104,0.000407429
723.175,0.000382167
721.247,0.000358306
719.318,0.000250441
717.39,0.000110547
715.461,0.0001396
713.533,0.000330534
711.604,0.000496285
709.676,0.00054519
707.747,0.000584043
705.819,0.000728939
703.89,0.000855364
701.962,0.000797424
700.033,0.000614502
698.105,0.00062386
696.177,0.001008081
694.248,0.001433053
692.32,0.001627468
690.391,0.001769879
688.463,0.001887273
686.534,0.001790932
684.606,0.001651009
682.677,0.001658363
680.749,0.001703969
678.82,0.001874612
676.892,0.002174654
674.963,0.002139196
673.035,0.001837774
671.106,0.002658507
669.178,0.005146659
667.25,0.006091424
665.321,0.003803204
663.393,0.001768111
661.464,0.001002503
659.536,0.000525881
657.607,0.000314862
655.679,0.000486281
653.75,0.000843459
651.822,0.001304046
649.893,0.001719848
647.965,0.002219586
646.036,0.002453269
644.108,0.001940938
642.179,0.001725097
640.251,0.002213809
638.323,0.002237253
636.394,0.002315162
634.466,0.003167853
632.537,0.003191374
630.609,0.001954797
628.68,0.000898706
626.752,0.00059055
624.823,0.001439572
622.895,0.002920337
620.966,0.003501382
619.038,0.004101184
617.109,0.005063919
615.181,0.004232986
613.252,0.001893045
611.324,0.000463062
609.396,0.000373048
607.467,0.000686106
605.539,0.002576968
603.61,0.005321648
601.682,0.005430229
599.753,0.004699827
597.825,0.005558502
595.896,0.004719715
593.968,0.001118808
592.039,-0.002171366
590.111,-0.003176728
588.182,-0.001277662
586.254,0.002652152
584.325,0.006041076
582.397,0.00733306
580.469,0.006595616
578.54,0.006527577
576.612,0.009905523
574.683,0.01277602
572.755,0.01216713
570.826,0.0110228
568.898,0.01127737
566.969,0.01409729
565.041,0.01552396
563.112,0.01022034
561.184,0.00643811
559.255,0.0119234
557.327,0.01696113
555.398,0.01388406
553.47,0.009172875
551.542,0.008402136
549.613,0.01108937
547.685,0.01562976
545.756,0.01765312
543.828,0.01428114
541.899,0.009184138
539.971,0.005999028
538.042,0.004368436
536.114,0.005316643
534.185,0.008508217
532.257,0.01019532
530.328,0.01008769
528.4,0.008141148
526.471,0.004507511
524.543,0.003262805
522.615,0.004874505
520.686,0.006802269
518.758,0.007851348
516.829,0.007657422
514.901,0.00890931
512.972,0.0130425
511.044,0.01536214
509.115,0.011557
507.187,0.005793046
505.258,0.006164304
503.33,0.01162171
501.401,0.0138653
499.473,0.01142394
497.544,0.009101021
495.616,0.007475775
493.688,0.005164577
491.759,0.0046448
489.831,0.00559605
487.902,0.004152588
485.974,0.001411523
484.045,0.000182431
482.117,0.000871159
480.188,0.003778527
478.26,0.007462107
476.331,0.008733926
474.403,0.006412521
472.474,0.003894872
470.546,0.005374297
468.617,0.009863046
466.689,0.01416118
464.76,0.01710483
462.832,0.01814526
460.904,0.01534074
458.975,0.009185196
457.047,0.004861311
455.118,0.005362845
453.19,0.008802629
451.261,0.01234242
449.333,0.01342997
447.404,0.0105357
445.476,0.005650385
443.547,0.002191877
441.619,0.000897695
439.69,0.001881943
437.762,0.005341774
435.833,0.00776311
433.905,0.005732581
431.977,0.001831067
430.048,0.000634177
428.12,0.002950725
426.191,0.006562396
424.263,0.008785855
422.334,0.008024846
420.406,0.005716608
418.477,0.004684441
416.549,0.005092178
414.62,0.005706143
412.692,0.005941973
410.763,0.005226298
408.835,0.003356707
406.906,0.001553084
404.978,0.003298589
403.05,0.009331509
401.121,0.01348767
399.193,0.01122195
