Wavenumbers [1/cm],absorbance
3997.712,-0.000197983
3995.783,-0.000180698
3993.855,-0.000170452
3991.926,-0.000183131
3989.998,-0.000212731
3988.069,-0.000233687
3986.141,-0.000236585
3984.212,-0.000225564
3982.284,-0.000214024
3980.355,-0.000215732
3978.427,-0.000221838
3976.499,-0.000230221
3974.57,-0.000242277
3972.642,-0.000238189
3970.713,-0.000226754
3968.785,-0.000227426
3966.856,-0.000224787
3964.928,-0.000205538
3962.999,-0.000191255
3961.071,-0.000203468
3959.142,-0.000222045
3957.214,-0.000231411
3955.285,-0.000238965
3953.357,-0.000249676
3951.428,-0.000260645
3949.5,-0.000253815
3947.572,-0.000234464
3945.643,-0.000233118
3943.715,-0.00024326
3941.786,-0.000241035
3939.858,-0.000228254
3937.929,-0.000214956
3936.001,-0.000211075
3934.072,-0.000225978
3932.144,-0.000242329
3930.215,-0.000251694
3928.287,-0.000275339
3926.358,-0.000298518
3924.43,-0.000291896
3922.501,-0.000270476
3920.573,-0.000256972
3918.645,-0.000247244
3916.716,-0.000231152
3914.788,-0.000216301
3912.859,-0.000217077
3910.931,-0.000229755
3909.002,-0.000236896
3907.074,-0.000237206
3905.145,-0.000242794
3903.217,-0.000249831
3901.288,-0.000250763
3899.36,-0.00024683
3897.431,-0.000240518
3895.503,-0.000244398
3893.574,-0.000253867
3891.646,-0.000243622
3889.718,-0.000221579
3887.789,-0.000215628
3885.861,-0.000227996
3883.932,-0.000236844
3882.004,-0.000230479
3880.075,-0.000225926
3878.147,-0.000231618
3876.218,-0.000235447
3874.29,-0.000236947
3872.361,-0.000244605
3870.433,-0.000250452
3868.504,-0.000244243
3866.576,-0.000234464
3864.647,-0.000232135
3862.719,-0.000237775
3860.791,-0.00023762
3858.862,-0.000223442
3856.934,-0.000222925
3855.005,-0.000255316
3853.077,-0.000285015
3851.148,-0.000283307
3849.22,-0.000269441
3847.291,-0.00026406
3845.363,-0.000268665
3843.434,-0.000271407
3841.506,-0.000265612
3839.577,-0.000266337
3837.649,-0.00027001
3835.72,-0.000265923
3833.792,-0.0002697
3831.864,-0.000277875
3829.935,-0.000270838
3828.007,-0.00025485
3826.078,-0.000255057
3824.15,-0.000274098
3822.221,-0.000283411
3820.293,-0.000281186
3818.364,-0.000298259
3816.436,-0.000333594
3814.507,-0.000350406
3812.579,-0.000325575
3810.65,-0.00028279
3808.722,-0.000261887
3806.793,-0.00026763
3804.865,-0.000289671
3802.937,-0.000323092
3801.008,-0.000348286
3799.08,-0.000347561
3797.151,-0.000326041
3795.223,-0.000297742
3793.294,-0.000271769
3791.366,-0.000262094
3789.437,-0.000276995
3787.509,-0.000297432
3785.58,-0.00030664
3783.652,-0.000303588
3781.723,-0.00028398
3779.795,-0.000264371
3777.866,-0.000266182
3775.938,-0.000275909
3774.01,-0.000283514
3772.081,-0.000290654
3770.153,-0.000288481
3768.224,-0.000277978
3766.296,-0.000267579
3764.367,-0.000267734
3762.439,-0.000276064
3760.51,-0.000271045
3758.582,-0.000261939
3756.653,-0.000275339
3754.725,-0.000305813
3752.796,-0.000321954
3750.868,-0.000303485
3748.939,-0.000268355
3747.011,-0.000242329
3745.083,-0.000221734
3743.154,-0.000167553
3741.226,-5.62E-05
3739.297,6.92E-05
3737.369,0.000169327
3735.44,0.000271214
3733.512,0.000391054
3731.583,0.000473713
3729.655,0.000484752
3727.726,0.000463451
3725.798,0.000440751
3723.869,0.000408673
3721.941,0.000322814
3720.012,0.000149336
3718.084,-5.55E-05
3716.156,-0.000202795
3714.227,-0.000246934
3712.299,-0.000196637
3710.37,-9.34E-05
3708.442,2.76E-05
3706.513,0.000136881
3704.585,0.000216176
3702.656,0.000244821
3700.728,0.000197788
3698.799,0.000115441
3696.871,6.08E-05
3694.942,1.24E-05
3693.014,-7.31E-05
3691.085,-0.000173867
3689.157,-0.000263025
3687.229,-0.000341923
3685.3,-0.00039603
3683.372,-0.000438442
3681.443,-0.00050981
3679.515,-0.000593884
3677.586,-0.000654008
3675.658,-0.000684817
3673.729,-0.000701616
3671.801,-0.000737331
3669.872,-0.000787668
3667.944,-0.000826115
3666.015,-0.000865489
3664.087,-0.000897781
3662.158,-0.000892511
3660.23,-0.000885691
3658.302,-0.000939214
3656.373,-0.001031521
3654.445,-0.001096129
3652.516,-0.001118076
3650.588,-0.001112344
3648.659,-0.001094993
3646.731,-0.001057396
3644.802,-0.000991542
3642.874,-0.00095497
3640.945,-0.000965973
3639.017,-0.00096618
3637.088,-0.000937561
3635.16,-0.000887809
3633.231,-0.000802706
3631.303,-0.000705337
3629.375,-0.00064186
3627.446,-0.000608515
3625.518,-0.00059559
3623.589,-0.00062144
3621.661,-0.000683214
3619.732,-0.000789787
3617.804,-0.000966335
3615.875,-0.001147302
3613.947,-0.001225575
3612.018,-0.001198522
3610.09,-0.001132586
3608.161,-0.001084819
3606.233,-0.001068035
3604.304,-0.001045827
3602.376,-0.00099397
3600.448,-0.000951044
3598.519,-0.000964268
3596.591,-0.000983691
3594.662,-0.000967781
3592.734,-0.000961169
3590.805,-0.000970415
3588.877,-0.001003836
3586.948,-0.001074129
3585.02,-0.001125718
3583.091,-0.00114911
3581.163,-0.001197851
3579.234,-0.001269196
3577.306,-0.001321692
3575.377,-0.001361433
3573.449,-0.001403803
3571.521,-0.001438015
3569.592,-0.001455817
3567.664,-0.001429656
3565.735,-0.001352969
3563.807,-0.0012996
3561.878,-0.001320659
3559.95,-0.001385896
3558.021,-0.001461854
3556.093,-0.001519692
3554.164,-0.001556268
3552.236,-0.001583299
3550.307,-0.001552399
3548.379,-0.001466859
3546.45,-0.00141851
3544.522,-0.001444104
3542.594,-0.001492193
3540.665,-0.001535994
3538.737,-0.001625183
3536.808,-0.001729101
3534.88,-0.001743797
3532.951,-0.001688671
3531.023,-0.001651126
3529.094,-0.001651436
3527.166,-0.001665257
3525.237,-0.001655613
3523.309,-0.001643493
3521.38,-0.001688775
3519.452,-0.001716106
3517.523,-0.001697335
3515.595,-0.001799947
3513.667,-0.002007624
3511.738,-0.002103002
3509.81,-0.002058124
3507.881,-0.001995256
3505.953,-0.001977682
3504.024,-0.002042562
3502.096,-0.002154057
3500.167,-0.002179762
3498.239,-0.002157457
3496.31,-0.002229315
3494.382,-0.002300543
3492.453,-0.002261866
3490.525,-0.002258982
3488.596,-0.00235693
3486.668,-0.002414237
3484.74,-0.002392767
3482.811,-0.002370215
3480.883,-0.002382006
3478.954,-0.002394157
3477.026,-0.002364499
3475.097,-0.002348794
3473.169,-0.002438125
3471.24,-0.00259944
3469.312,-0.002707602
3467.383,-0.002757094
3465.455,-0.002828493
3463.526,-0.0029024
3461.598,-0.002929398
3459.669,-0.002914022
3457.741,-0.002930838
3455.813,-0.003048017
3453.884,-0.003153857
3451.956,-0.003137255
3450.027,-0.003078605
3448.099,-0.003026321
3446.17,-0.002967913
3444.242,-0.002973877
3442.313,-0.003056602
3440.385,-0.00314183
3438.456,-0.003221285
3436.528,-0.003349534
3434.599,-0.003588974
3432.671,-0.003856609
3430.742,-0.003948554
3428.814,-0.003892065
3426.885,-0.003864819
3424.957,-0.003921722
3423.029,-0.004062176
3421.1,-0.004187562
3419.172,-0.00417782
3417.243,-0.004130489
3415.315,-0.004181409
3413.386,-0.004291177
3411.458,-0.004354994
3409.529,-0.004315218
3407.601,-0.004305479
3405.672,-0.004486906
3403.744,-0.004633325
3401.815,-0.004584097
3399.887,-0.004597416
3397.958,-0.004727513
3396.03,-0.004760901
3394.102,-0.0046407
3392.173,-0.004574978
3390.245,-0.004720906
3388.316,-0.004793058
3386.388,-0.004638242
3384.459,-0.004592959
3382.531,-0.004694173
3380.602,-0.004692687
3378.674,-0.004753988
3376.745,-0.004995624
3374.817,-0.005064967
3372.888,-0.004892126
3370.96,-0.004854089
3369.031,-0.005053249
3367.103,-0.005169754
3365.175,-0.00509833
3363.246,-0.005136653
3361.318,-0.00538953
3359.389,-0.0056418
3357.461,-0.005693616
3355.532,-0.005521127
3353.604,-0.005246844
3351.675,-0.005003455
3349.747,-0.004900777
3347.818,-0.004989073
3345.89,-0.005085845
3343.961,-0.004936968
3342.033,-0.004748662
3340.104,-0.004792085
3338.176,-0.004818659
3336.248,-0.004792034
3334.319,-0.004988152
3332.391,-0.00526265
3330.462,-0.005264184
3328.534,-0.004943827
3326.605,-0.004494745
3324.677,-0.004158488
3322.748,-0.004005138
3320.82,-0.003823613
3318.891,-0.003643808
3316.963,-0.003705668
3315.034,-0.003841163
3313.106,-0.003823715
3311.177,-0.003691089
3309.249,-0.003474098
3307.321,-0.003337204
3305.392,-0.003547998
3303.464,-0.003911666
3301.535,-0.004041455
3299.607,-0.003945066
3297.678,-0.003747552
3295.75,-0.003576959
3293.821,-0.003532079
3291.893,-0.003491355
3289.964,-0.003342701
3288.036,-0.003185825
3286.107,-0.003167271
3284.179,-0.003214142
3282.25,-0.003253864
3280.322,-0.003332529
3278.394,-0.003418421
3276.465,-0.00352376
3274.537,-0.00349649
3272.608,-0.003110167
3270.68,-0.002766508
3268.751,-0.002920502
3266.823,-0.003282588
3264.894,-0.003518522
3262.966,-0.003546458
3261.037,-0.00340224
3259.109,-0.003444514
3257.18,-0.003644578
3255.252,-0.003662546
3253.323,-0.003772189
3251.395,-0.004097616
3249.467,-0.004226325
3247.538,-0.004170077
3245.61,-0.004198176
3243.681,-0.00422535
3241.753,-0.004164591
3239.824,-0.004122181
3237.896,-0.004096231
3235.967,-0.003972256
3234.039,-0.003792359
3232.11,-0.003766338
3230.182,-0.003925929
3228.253,-0.004112438
3226.325,-0.004227452
3224.396,-0.004363298
3222.468,-0.004570367
3220.54,-0.004605971
3218.611,-0.004405529
3216.683,-0.004140438
3214.754,-0.003893297
3212.826,-0.003857173
3210.897,-0.003989903
3208.969,-0.003986928
3207.04,-0.003870925
3205.112,-0.003757202
3203.183,-0.003665986
3201.255,-0.003637955
3199.326,-0.003638982
3197.398,-0.003595033
3195.469,-0.003479131
3193.541,-0.003471633
3191.613,-0.003651714
3189.684,-0.003757202
3187.756,-0.003700688
3185.827,-0.003564995
3183.899,-0.003407839
3181.97,-0.003320044
3180.042,-0.003266556
3178.113,-0.003204326
3176.185,-0.003183872
3174.256,-0.003224163
3172.328,-0.003259106
3170.399,-0.003246773
3168.471,-0.003218715
3166.542,-0.00312754
3164.614,-0.003052952
3162.686,-0.003210082
3160.757,-0.003482007
3158.829,-0.00358158
3156.9,-0.003499366
3154.972,-0.00343645
3153.043,-0.003497209
3151.115,-0.003534287
3149.186,-0.003419962
3147.258,-0.003246927
3145.329,-0.003053261
3143.401,-0.002826847
3141.472,-0.00267956
3139.544,-0.002658567
3137.615,-0.002662169
3135.687,-0.002590794
3133.759,-0.002495935
3131.83,-0.002466542
3129.902,-0.002468756
3127.973,-0.002459695
3126.045,-0.002425254
3124.116,-0.00237387
3122.188,-0.002336487
3120.259,-0.002301882
3118.331,-0.002267737
3116.402,-0.002233641
3114.474,-0.002160702
3112.545,-0.002033957
3110.617,-0.001899082
3108.688,-0.001812888
3106.76,-0.001779788
3104.832,-0.001784325
3102.903,-0.001806237
3100.975,-0.001782211
3099.046,-0.001675727
3097.118,-0.0015378
3095.189,-0.001413453
3093.261,-0.001319524
3091.332,-0.001265428
3089.404,-0.001181174
3087.475,-0.001031469
3085.547,-0.000930328
3083.618,-0.00091421
3081.69,-0.000864765
3079.761,-0.000751957
3077.833,-0.000652561
3075.905,-0.000570152
3073.976,-0.000475627
3072.048,-0.000403323
3070.119,-0.000364425
3068.191,-0.000315022
3066.262,-0.000247141
3064.334,-0.000200673
3062.405,-0.000180698
3060.477,-0.000156582
3058.548,-0.000114712
3056.62,-7.01E-05
3054.691,-4.10E-05
3052.763,-2.38E-05
3050.834,-1.64E-05
3048.906,-3.93E-06
3046.978,1.73E-05
3045.049,1.76E-06
3043.121,-3.61E-05
3041.192,-3.84E-05
3039.264,-1.47E-05
3037.335,2.09E-05
3035.407,6.13E-05
3033.478,8.02E-05
3031.55,7.93E-05
3029.621,7.03E-05
3027.693,6.38E-05
3025.764,7.61E-05
3023.836,9.30E-05
3021.907,0.000105705
3019.979,0.000132556
3018.051,0.000152935
3016.122,0.000139755
3014.194,0.000122846
3012.265,0.000121785
3010.337,0.000117202
3008.408,0.000111298
3006.48,0.000110366
3004.551,0.000109304
3002.623,0.000127792
3000.694,0.000169664
2998.766,0.000200015
2996.837,0.000229125
2994.909,0.000298801
2992.98,0.0003888
2991.052,0.000469826
2989.124,0.00055027
2987.195,0.000621682
2985.267,0.000682294
2983.338,0.00074696
2981.41,0.000811143
2979.481,0.000878241
2977.553,0.000947839
2975.624,0.001018486
2973.696,0.001104949
2971.767,0.001201527
2969.839,0.001293583
2967.91,0.001373972
2965.982,0.001438559
2964.053,0.001502922
2962.125,0.001577609
2960.197,0.001650697
2958.268,0.001696692
2956.34,0.001684556
2954.411,0.001611956
2952.483,0.001522041
2950.554,0.001450636
2948.626,0.001403499
2946.697,0.001386593
2944.769,0.001391838
2942.84,0.00139937
2940.912,0.00141451
2938.983,0.001449052
2937.055,0.001487026
2935.126,0.001496844
2933.198,0.00147861
2931.27,0.001466428
2929.341,0.001479415
2927.413,0.001506221
2925.484,0.001513702
2923.556,0.00147261
2921.627,0.001401681
2919.699,0.001335256
2917.77,0.0012799
2915.842,0.001235922
2913.913,0.001192779
2911.985,0.001140479
2910.056,0.00109283
2908.128,0.001048274
2906.199,0.000994745
2904.271,0.00094099
2902.343,0.000903765
2900.414,0.000885503
2898.486,0.000866361
2896.557,0.000833369
2894.629,0.000803804
2892.7,0.000795764
2890.772,0.000804193
2888.843,0.000811247
2886.915,0.00081563
2884.986,0.000834796
2883.058,0.000869214
2881.129,0.000904387
2879.201,0.000932351
2877.272,0.000951782
2875.344,0.000969008
2873.416,0.000981877
2871.487,0.000976351
2869.559,0.000953857
2867.63,0.00092156
2865.702,0.000872586
2863.773,0.000805801
2861.845,0.000746183
2859.916,0.000713511
2857.988,0.000699277
2856.059,0.000689398
2854.131,0.000675528
2852.202,0.000663005
2850.274,0.000657691
2848.345,0.000641384
2846.417,0.000600685
2844.489,0.000555091
2842.56,0.000533838
2840.632,0.000541976
2838.703,0.000556568
2836.775,0.000557838
2834.846,0.000553432
2832.918,0.000547393
2830.989,0.000525052
2829.061,0.000500638
2827.132,0.000504604
2825.204,0.000529095
2823.275,0.000537596
2821.347,0.000515203
2819.418,0.00048229
2817.49,0.000460704
2815.562,0.000460445
2813.633,0.000472391
2811.705,0.000472857
2809.776,0.000468426
2807.848,0.000476149
2805.919,0.000484078
2803.991,0.00048242
2802.062,0.000478455
2800.134,0.000476382
2798.205,0.000473635
2796.277,0.000471199
2794.348,0.000472365
2792.42,0.000469489
2790.491,0.000456376
2788.563,0.000440596
2786.635,0.00042567
2784.706,0.00040787
2782.778,0.000390717
2780.849,0.000382867
2778.921,0.000384966
2776.992,0.000391935
2775.064,0.000392816
2773.135,0.000374084
2771.207,0.000352606
2769.278,0.000354446
2767.35,0.000366441
2765.421,0.000365431
2763.493,0.000352866
2761.564,0.00034429
2759.636,0.000342736
2757.708,0.000339705
2755.779,0.000331001
2753.851,0.000313411
2751.922,0.000292688
2749.994,0.000281627
2748.065,0.000281031
2746.137,0.000283492
2744.208,0.000280928
2742.28,0.00027238
2740.351,0.000262356
2738.423,0.000251866
2736.494,0.000247204
2734.566,0.000250182
2732.637,0.000248784
2730.709,0.000240625
2728.781,0.000229773
2726.852,0.000215347
2724.924,0.000201673
2722.995,0.000196856
2721.067,0.000200792
2719.138,0.000197659
2717.21,0.000180618
2715.281,0.000166686
2713.353,0.00016956
2711.424,0.000180955
2709.496,0.000184762
2707.567,0.000179815
2705.639,0.000177899
2703.71,0.000178831
2701.782,0.000178935
2699.854,0.000182042
2697.925,0.000182923
2695.997,0.000173807
2694.068,0.00016319
2692.14,0.000156198
2690.211,0.00015032
2688.283,0.000149543
2686.354,0.000152521
2684.426,0.000156561
2682.497,0.000161067
2680.569,0.000158658
2678.64,0.00015379
2676.712,0.000152521
2674.783,0.000144804
2672.855,0.000131443
2670.927,0.000125177
2668.998,0.000125332
2667.07,0.000122976
2665.141,0.000119739
2663.213,0.000121034
2661.284,0.000116994
2659.356,0.000103841
2657.427,9.73E-05
2655.499,9.89E-05
2653.57,9.62E-05
2651.642,9.36E-05
2649.713,9.87E-05
2647.785,9.68E-05
2645.856,7.40E-05
2643.928,4.54E-05
2642,3.09E-05
2640.071,3.01E-05
2638.143,3.51E-05
2636.214,4.97E-05
2634.286,7.99E-05
2632.357,9.97E-05
2630.429,9.34E-05
2628.5,8.78E-05
2626.572,8.23E-05
2624.643,6.04E-05
2622.715,4.67E-05
2620.786,4.61E-05
2618.858,2.24E-05
2616.929,-1.39E-05
2615.001,-1.32E-05
2613.073,2.51E-05
2611.144,6.35E-05
2609.216,7.38E-05
2607.287,6.43E-05
2605.359,6.69E-05
2603.43,7.13E-05
2601.502,5.83E-05
2599.573,5.20E-05
2597.645,6.25E-05
2595.716,6.27E-05
2593.788,2.67E-05
2591.859,-3.29E-05
2589.931,-7.02E-05
2588.002,-7.29E-05
2586.074,-5.98E-05
2584.146,-3.24E-05
2582.217,-1.55E-05
2580.289,-4.48E-05
2578.36,-9.07E-05
2576.432,-0.000102238
2574.503,-6.60E-05
2572.575,-6.57E-06
2570.646,1.98E-05
2568.718,-1.24E-05
2566.789,-6.80E-05
2564.861,-0.000111295
2562.932,-0.000123717
2561.004,-8.48E-05
2559.075,-2.64E-05
2557.147,-2.30E-05
2555.219,-7.47E-05
2553.29,-0.000116057
2551.362,-0.000110416
2549.433,-7.68E-05
2547.505,-5.67E-05
2545.576,-6.13E-05
2543.648,-7.94E-05
2541.719,-9.80E-05
2539.791,-0.000105447
2537.862,-0.000106792
2535.934,-0.000102755
2534.005,-7.93E-05
2532.077,-4.42E-05
2530.148,-3.60E-05
2528.22,-6.24E-05
2526.292,-9.23E-05
2524.363,-0.000111554
2522.435,-0.000124701
2520.506,-0.000144989
2518.578,-0.000159894
2516.649,-0.00012998
2514.721,-8.70E-05
2512.792,-6.82E-05
2510.864,-3.79E-05
2508.935,-2.07E-06
2507.007,-8.80E-07
2505.078,-1.13E-05
2503.15,-1.42E-05
2501.221,-6.12E-05
2499.293,-0.000159377
2497.365,-0.000215214
2495.436,-0.000196223
2493.508,-0.000158652
2491.579,-0.000138209
2489.651,-0.000131947
2487.722,-0.000126771
2485.794,-0.000119163
2483.865,-0.00010524
2481.937,-0.000100374
2480.008,-0.000136915
2478.08,-0.000195136
2476.151,-0.000235447
2474.223,-0.000253402
2472.294,-0.000240569
2470.366,-0.000184062
2468.438,-0.000134897
2466.509,-0.000142815
2464.581,-0.000155961
2462.652,-0.000132827
2460.724,-0.000111088
2458.795,-0.000104722
2456.867,-0.000100322
2454.938,-0.000117403
2453.01,-0.000164397
2451.081,-0.000213455
2449.153,-0.00023405
2447.224,-0.000207866
2445.296,-0.000167553
2443.367,-0.000161602
2441.439,-0.000173764
2439.51,-0.00016155
2437.582,-0.000153218
2435.654,-0.000222459
2433.725,-0.000319471
2431.797,-0.000334422
2429.868,-0.000288171
2427.94,-0.000247762
2426.011,-0.000207608
2424.083,-0.000167864
2422.154,-0.000177593
2420.226,-0.000228358
2418.297,-0.000254592
2416.369,-0.000240725
2414.44,-0.000217026
2412.512,-0.000202071
2410.583,-0.000209574
2408.655,-0.000239741
2406.727,-0.000259197
2404.798,-0.000259248
2402.87,-0.000250711
2400.941,-0.000230531
2399.013,-0.000207815
2397.084,-0.000191617
2395.156,-0.000199794
2393.227,-0.000229651
2391.299,-0.000237517
2389.37,-0.00019141
2387.442,-4.20E-05
2385.513,0.000329446
2383.585,0.001055799
2381.656,0.002229733
2379.728,0.003887063
2377.8,0.005966799
2375.871,0.008310197
2373.943,0.01069862
2372.014,0.01294141
2370.086,0.01496954
2368.157,0.01676341
2366.229,0.01826965
2364.3,0.01944311
2362.372,0.02025438
2360.443,0.02058048
2358.515,0.02028893
2356.586,0.0193343
2354.658,0.01756152
2352.729,0.01475492
2350.801,0.01164782
2348.873,0.01014916
2346.944,0.01125009
2345.016,0.01360651
2343.087,0.01509675
2341.159,0.01539719
2339.23,0.01519201
2337.302,0.01481585
2335.373,0.01445147
2333.445,0.01425912
2331.516,0.01411464
2329.588,0.0136492
2327.659,0.01286731
2325.731,0.01216529
2323.802,0.01164152
2321.874,0.01099442
2319.946,0.01003751
2318.017,0.008892083
2316.089,0.007795789
2314.16,0.006885315
2312.232,0.00604525
2310.303,0.005173326
2308.375,0.00431651
2306.446,0.003534656
2304.518,0.00288732
2302.589,0.002376116
2300.661,0.001932929
2298.732,0.001535367
2296.804,0.001225071
2294.875,0.000998274
2292.947,0.000791174
2291.019,0.000553225
2289.09,0.000292947
2287.162,6.30E-05
2285.233,-6.78E-05
2283.305,-0.00010731
2281.376,-0.000193636
2279.448,-0.000304933
2277.519,-0.000314866
2275.591,-0.000267372
2273.662,-0.000223545
2271.734,-0.000299553
2269.805,-0.000486746
2267.877,-0.00049471
2265.948,-0.000310572
2264.02,-0.000180854
2262.092,-0.000170452
2260.163,-0.000253919
2258.235,-0.000327179
2256.306,-0.000336129
2254.378,-0.000432908
2252.449,-0.000574392
2250.521,-0.000634364
2248.592,-0.000764774
2246.664,-0.000838413
2244.735,-0.000423288
2242.807,0.000250286
2240.878,0.000520231
2238.95,0.000343151
2237.021,-2.17E-06
2235.093,-0.000308296
2233.165,-0.000281341
2231.236,-5.51E-05
2229.308,-0.00014473
2227.379,-0.000499726
2225.451,-0.000795678
2223.522,-0.001085284
2221.594,-0.0012026
2219.665,-0.00085469
2217.737,-0.000183803
2215.808,0.00032398
2213.88,0.000232026
2211.951,-0.000223856
2210.023,-0.00068461
2208.094,-0.001084509
2206.166,-0.001209364
2204.238,-0.00118897
2202.309,-0.001181948
2200.381,-0.000679906
2198.452,9.20E-05
2196.524,0.000315898
2194.595,0.000487473
2192.667,0.001108712
2190.738,0.001248227
2188.81,0.000243604
2186.881,-0.001129333
2184.953,-0.001796441
2183.024,-0.001505504
2181.096,-0.000565706
2179.167,-0.000187736
2177.239,-0.00124607
2175.311,-0.002785284
2173.382,-0.00350214
2171.454,-0.002845003
2169.525,-0.001546725
2167.597,-0.001037822
2165.668,-0.001681967
2163.74,-0.00285601
2161.811,-0.003290706
2159.883,-0.001909082
2157.954,-3.00E-05
2156.026,0.000569217
2154.097,0.000680454
2152.169,0.000439041
2150.24,-0.000478833
2148.312,-0.00109711
2146.384,-0.001031779
2144.455,-0.000840635
2142.527,-0.000610893
2140.598,-0.000319574
2138.67,-0.000356511
2136.741,-0.000909612
2134.813,-0.001447613
2132.884,-0.00144653
2130.956,-0.000962047
2129.027,-0.000323661
2127.099,-1.62E-05
2125.17,-0.000248279
2123.242,-0.000597193
2121.313,-0.000761829
2119.385,-0.000889721
2117.457,-0.000979869
2115.528,-0.000921184
2113.6,-0.000805755
2111.671,-0.00076617
2109.743,-0.000774025
2107.814,-0.00067851
2105.886,-0.000576719
2103.957,-0.000734023
2102.029,-0.00101396
2100.1,-0.001044174
2098.172,-0.000771648
2096.243,-0.000385219
2094.315,-9.72E-05
2092.386,-4.20E-05
2090.458,-0.000104515
2088.53,-9.37E-05
2086.601,1.76E-05
2084.673,0.000116606
2082.744,5.96E-05
2080.816,-7.26E-05
2078.887,-2.98E-05
2076.959,7.81E-05
2075.03,-9.21E-05
2073.102,-0.000484367
2071.173,-0.000788547
2069.245,-0.000963648
2067.316,-0.001173119
2065.388,-0.001257943
2063.459,-0.001048306
2061.531,-0.000831696
2059.603,-0.000724617
2057.674,-0.000673238
2055.746,-0.000666259
2053.817,-0.000666776
2051.889,-0.000866677
2049.96,-0.00098679
2048.032,-0.000466267
2046.103,0.00026448
2044.175,0.000715249
2042.246,0.001225045
2040.318,0.001884491
2038.389,0.002135606
2036.461,0.001528743
2034.532,0.000349213
2032.604,-0.000658971
2030.676,-0.001102222
2028.747,-0.001451535
2026.819,-0.0018747
2024.89,-0.001713476
2022.962,-0.000897212
2021.033,-0.000228513
2019.105,-0.000838362
2017.176,-0.002825252
2015.248,-0.004004369
2013.319,-0.003283667
2011.391,-0.002204488
2009.462,-0.00121494
2007.534,0.000128854
2005.605,0.000417379
2003.677,-0.0010074
2001.749,-0.002194495
1999.82,-0.002126598
1997.892,-0.001783449
1995.963,-0.001732195
1994.035,-0.001577418
1992.106,-0.001129178
1990.178,-0.0008133
1988.249,-0.000919686
1986.321,-0.001275391
1984.392,-0.001297122
1982.464,-0.000167967
1980.535,0.001451883
1978.607,0.001685518
1976.678,0.000379525
1974.75,-0.000956571
1972.822,-0.00197861
1970.893,-0.00249331
1968.965,-0.001490335
1967.036,0.000435543
1965.108,0.001787813
1963.179,0.002112766
1961.251,0.00144352
1959.322,0.000488329
1957.394,0.000116969
1955.465,0.000292273
1953.537,0.000308282
1951.608,-0.000226495
1949.68,-0.000738623
1947.751,-0.000938439
1945.823,-0.001045311
1943.895,-0.000951405
1941.966,-0.000785653
1940.038,-0.000683214
1938.109,-0.000535199
1936.181,-0.000577494
1934.252,-0.000809631
1932.324,-0.000874737
1930.395,-0.000790666
1928.467,-0.000688177
1926.538,-0.00055826
1924.61,-0.000480126
1922.681,-0.000522117
1920.753,-0.000644393
1918.824,-0.000757591
1916.896,-0.000769012
1914.968,-0.00063669
1913.039,-0.000463991
1911.111,-0.000404565
1909.182,-0.00037715
1907.254,-0.000235861
1905.325,-0.000103325
1903.397,-0.000119421
1901.468,-0.000227996
1899.54,-0.000360183
1897.611,-0.000492434
1895.683,-0.000589851
1893.754,-0.0005807
1891.826,-0.000420702
1889.897,-0.00028667
1887.969,-0.00033556
1886.041,-0.00035232
1884.112,-0.000207245
1882.184,-0.000141884
1880.255,-0.000251332
1878.327,-0.000367012
1876.398,-0.000398203
1874.47,-0.000382633
1872.541,-0.000369184
1870.613,-0.000363753
1868.684,-0.000347716
1866.756,-0.000313573
1864.827,-0.000294017
1862.899,-0.000340009
1860.97,-0.00042784
1859.042,-0.000479351
1857.114,-0.00048023
1855.185,-0.000476868
1853.257,-0.000461509
1851.328,-0.000404461
1849.4,-0.000361425
1847.471,-0.000375288
1845.543,-0.000386823
1843.614,-0.000378443
1841.686,-0.000400582
1839.757,-0.000438339
1837.829,-0.000453492
1835.9,-0.000444752
1833.972,-0.000407616
1832.043,-0.000361632
1830.115,-0.000338043
1828.187,-0.000338508
1826.258,-0.000361011
1824.33,-0.00040234
1822.401,-0.000430012
1820.473,-0.000414909
1818.544,-0.000391116
1816.616,-0.00039153
1814.687,-0.000389358
1812.759,-0.000375443
1810.83,-0.000358787
1808.902,-0.000338767
1806.973,-0.000336129
1805.045,-0.000356304
1803.116,-0.000375133
1801.188,-0.000381133
1799.26,-0.000369391
1797.331,-0.000357856
1795.403,-0.000368615
1793.474,-0.000382788
1791.546,-0.00039272
1789.617,-0.000404823
1787.689,-0.000404513
1785.76,-0.00039122
1783.832,-0.000382944
1781.903,-0.00038553
1779.975,-0.000385582
1778.046,-0.000380823
1776.118,-0.000394789
1774.189,-0.000427943
1772.261,-0.000448217
1770.333,-0.000448941
1768.404,-0.000448424
1766.476,-0.000447183
1764.547,-0.000437718
1762.619,-0.000428357
1760.69,-0.000434874
1758.762,-0.000453699
1756.833,-0.000466732
1754.905,-0.00048054
1752.976,-0.000511619
1751.048,-0.000548643
1749.119,-0.000566481
1747.191,-0.000565706
1745.262,-0.00057341
1743.334,-0.00059285
1741.406,-0.000602414
1739.477,-0.000605723
1737.549,-0.000618907
1735.62,-0.000637156
1733.692,-0.000646254
1731.763,-0.000650183
1729.835,-0.000662589
1727.906,-0.000671739
1725.978,-0.000664088
1724.049,-0.00065804
1722.121,-0.000672928
1720.192,-0.000705906
1718.264,-0.000736246
1716.335,-0.000741621
1714.407,-0.00071614
1712.479,-0.000672721
1710.55,-0.000630849
1708.622,-0.000593315
1706.693,-0.000537422
1704.765,-0.000434925
1702.836,-0.000289205
1700.908,-1.00E-04
1698.979,0.000176371
1697.051,0.000551825
1695.122,0.001000427
1693.194,0.001512923
1691.265,0.002081761
1689.337,0.002688876
1687.408,0.003300024
1685.48,0.003900697
1683.552,0.00452726
1681.623,0.005200309
1679.695,0.005899331
1677.766,0.006607864
1675.838,0.007309867
1673.909,0.007976779
1671.981,0.008599723
1670.052,0.009212905
1668.124,0.009874803
1666.195,0.01062174
1664.267,0.01145857
1662.338,0.01237997
1660.41,0.01332882
1658.481,0.01419041
1656.553,0.01485608
1654.625,0.01524971
1652.696,0.01536131
1650.768,0.01528301
1648.839,0.01511653
1646.911,0.01488681
1644.982,0.0145842
1643.054,0.01418439
1641.125,0.0136882
1639.197,0.01313662
1637.268,0.01252067
1635.34,0.01182726
1633.411,0.01112838
1631.483,0.01047775
1629.554,0.009858968
1627.626,0.009260792
1625.698,0.00868203
1623.769,0.008125772
1621.841,0.00762254
1619.912,0.007171365
1617.984,0.006729123
1616.055,0.006301803
1614.127,0.005913842
1612.198,0.005524025
1610.27,0.005104829
1608.341,0.004710111
1606.413,0.004379601
1604.484,0.004101759
1602.556,0.00386784
1600.627,0.003666285
1598.699,0.003488883
1596.771,0.003353159
1594.842,0.003270551
1592.914,0.003233881
1590.985,0.003245435
1589.057,0.003318465
1587.128,0.003451882
1585.2,0.003616453
1583.271,0.003789755
1581.343,0.003983425
1579.414,0.004204129
1577.486,0.004442309
1575.557,0.004709326
1573.629,0.005011778
1571.7,0.005337424
1569.772,0.005686603
1567.844,0.006065199
1565.915,0.006480699
1563.987,0.00695533
1562.058,0.007502137
1560.13,0.008131574
1558.201,0.0088673
1556.273,0.009704006
1554.344,0.01059657
1552.416,0.01148103
1550.487,0.01227898
1548.559,0.01292947
1546.63,0.01341059
1544.702,0.01371994
1542.773,0.01383288
1540.845,0.01370746
1538.917,0.01334582
1536.988,0.0127958
1535.06,0.01211118
1533.131,0.01135926
1531.203,0.0106111
1529.274,0.009908091
1527.346,0.009267324
1525.417,0.008699671
1523.489,0.008214057
1521.56,0.007810021
1519.632,0.007473694
1517.703,0.007157838
1515.775,0.006783126
1513.846,0.006309813
1511.918,0.005781818
1509.99,0.005266804
1508.061,0.00479425
1506.133,0.004377195
1504.204,0.004022875
1502.276,0.003711476
1500.347,0.00342386
1498.419,0.003159405
1496.49,0.00291622
1494.562,0.002688408
1492.633,0.002476127
1490.705,0.002278262
1488.776,0.002096301
1486.848,0.00194424
1484.919,0.001834031
1482.991,0.00177149
1481.063,0.001752569
1479.134,0.001772608
1477.206,0.001839464
1475.277,0.00194814
1473.349,0.002082255
1471.42,0.00223067
1469.492,0.002361618
1467.563,0.002453061
1465.635,0.002543716
1463.706,0.002680255
1461.778,0.00284839
1459.849,0.002994721
1457.921,0.003073888
1455.992,0.003074618
1454.064,0.003027017
1452.135,0.002973556
1450.207,0.002929954
1448.279,0.002889769
1446.35,0.002858135
1444.422,0.002841668
1442.493,0.002819494
1440.565,0.002758661
1438.636,0.002654314
1436.708,0.00254632
1434.779,0.002473914
1432.851,0.002437051
1430.922,0.002424452
1428.994,0.002432704
1427.065,0.002460064
1425.137,0.00250966
1423.208,0.002582385
1421.28,0.002666529
1419.352,0.002752253
1417.423,0.002832913
1415.495,0.002890134
1413.566,0.002905692
1411.638,0.002885418
1409.709,0.002852637
1407.781,0.002824445
1405.852,0.002811105
1403.924,0.002819781
1401.995,0.00284826
1400.067,0.002886903
1398.138,0.002918852
1396.21,0.00291635
1394.281,0.002865353
1392.353,0.002790184
1390.425,0.002718909
1388.496,0.002649261
1386.568,0.002567542
1384.639,0.002460507
1382.711,0.002321773
1380.782,0.002168462
1378.854,0.002021837
1376.925,0.001890211
1374.997,0.001790907
1373.068,0.00174971
1371.14,0.00176507
1369.211,0.001793688
1367.283,0.00178654
1365.354,0.001745577
1363.426,0.001709011
1361.498,0.001685674
1359.569,0.001663378
1357.641,0.001650282
1355.712,0.001659298
1353.784,0.001688922
1351.855,0.001732842
1349.927,0.001791582
1347.998,0.001872454
1346.07,0.001972167
1344.141,0.002071695
1342.213,0.00214674
1340.284,0.002179883
1338.356,0.002173587
1336.427,0.002148274
1334.499,0.002116876
1332.571,0.002079836
1330.642,0.002044256
1328.714,0.002028937
1326.785,0.002044672
1324.857,0.002082021
1322.928,0.002128608
1321,0.002180689
1319.071,0.002236134
1317.143,0.002287083
1315.214,0.002321356
1313.286,0.002334889
1311.357,0.002333822
1309.429,0.002329242
1307.5,0.002328591
1305.572,0.002329112
1303.644,0.002326848
1301.715,0.002324401
1299.787,0.002324531
1297.858,0.002324609
1295.93,0.002325598
1294.001,0.002332703
1292.073,0.002344337
1290.144,0.002360838
1288.216,0.002383924
1286.287,0.002409537
1284.359,0.002436401
1282.43,0.002464724
1280.502,0.002497553
1278.573,0.002536738
1276.645,0.002571135
1274.717,0.002593035
1272.788,0.002614389
1270.86,0.0026465
1268.931,0.002684396
1267.003,0.00272266
1265.074,0.002759495
1263.146,0.002789845
1261.217,0.002804357
1259.289,0.002803497
1257.36,0.002804227
1255.432,0.002815117
1253.503,0.002826477
1251.575,0.002830359
1249.646,0.002821917
1247.718,0.002792841
1245.79,0.002745948
1243.861,0.002702056
1241.933,0.002676088
1240.004,0.00266731
1238.076,0.002665279
1236.147,0.002651006
1234.219,0.002609285
1232.29,0.002532884
1230.362,0.002418882
1228.433,0.002283102
1226.505,0.002155871
1224.576,0.00205081
1222.648,0.001956617
1220.719,0.001862991
1218.791,0.001774791
1216.863,0.001695341
1214.934,0.00162409
1213.006,0.00157114
1211.077,0.001542121
1209.149,0.001530016
1207.22,0.001533705
1205.292,0.001553916
1203.363,0.001581922
1201.435,0.0016065
1199.506,0.001618763
1197.578,0.001614658
1195.649,0.001596679
1193.721,0.001566048
1191.792,0.001534796
1189.864,0.001529314
1187.936,0.001545603
1186.007,0.001556332
1184.079,0.001570542
1182.15,0.001607981
1180.222,0.001660494
1178.293,0.00171834
1176.365,0.001775233
1174.436,0.001817134
1172.508,0.001835669
1170.579,0.001835565
1168.651,0.00182878
1166.722,0.001821683
1164.794,0.001808608
1162.865,0.001783525
1160.937,0.001751061
1159.009,0.001718522
1157.08,0.001681152
1155.152,0.001637445
1153.223,0.001598783
1151.295,0.001564489
1149.366,0.001529185
1147.438,0.001501935
1145.509,0.001484532
1143.581,0.001470168
1141.652,0.001461649
1139.724,0.001461701
1137.795,0.001462324
1135.867,0.001455
1133.938,0.001442871
1132.01,0.001434664
1130.082,0.001425392
1128.153,0.001399058
1126.225,0.001356808
1124.296,0.001320455
1122.368,0.001301579
1120.439,0.001300048
1118.511,0.001313886
1116.582,0.00132918
1114.654,0.001330504
1112.725,0.001309732
1110.797,0.00126775
1108.868,0.001220399
1106.94,0.001176453
1105.011,0.001123843
1103.083,0.001049467
1101.155,0.000953287
1099.226,0.000851499
1097.298,0.000761093
1095.369,0.000680143
1093.441,0.000605921
1091.512,0.000552525
1089.584,0.000538166
1087.655,0.000556879
1085.727,0.000579767
1083.798,0.000597393
1081.87,0.000614553
1079.941,0.000626633
1078.013,0.000632233
1076.084,0.000617586
1074.156,0.000570876
1072.228,0.000513571
1070.299,0.000467079
1068.371,0.000435491
1066.442,0.000420177
1064.514,0.000413907
1062.585,0.000417845
1060.657,0.000444456
1058.728,0.000486566
1056.8,0.000529199
1054.871,0.000572613
1052.943,0.000615798
1051.014,0.000641073
1049.086,0.000631637
1047.157,0.000591483
1045.229,0.000539255
1043.301,0.000495274
1041.372,0.000469566
1039.444,0.000452049
1037.515,0.000435724
1035.587,0.000427536
1033.658,0.00042225
1031.73,0.000411601
1029.801,0.00039976
1027.873,0.000395303
1025.944,0.00040717
1024.016,0.000423857
1022.087,0.000422509
1020.159,0.000414036
1018.23,0.000417819
1016.302,0.000418389
1014.374,0.000400744
1012.445,0.000374628
1010.517,0.000336881
1008.588,0.000280358
1006.66,0.000219128
1004.731,0.000162646
1002.803,0.000105162
1000.874,4.06E-05
998.946,-3.74E-05
997.017,-0.000133085
995.089,-0.000237361
993.16,-0.000323402
991.232,-0.000363028
989.303,-0.000343061
987.375,-0.000270269
985.447,-0.000172884
983.518,-8.45E-05
981.59,-1.58E-05
979.661,4.09E-05
977.733,8.34E-05
975.804,0.000112411
973.876,0.000144002
971.947,0.000179427
970.019,0.000203382
968.09,0.000210141
966.162,0.000210867
964.233,0.000227675
962.305,0.000265231
960.376,0.000299138
958.448,0.000315742
956.52,0.000329835
954.591,0.000357684
952.663,0.000393645
950.734,0.000422069
948.806,0.000443653
946.877,0.00047278
944.949,0.000509009
943.02,0.000537233
941.092,0.000556776
939.163,0.000587361
937.235,0.000627541
935.306,0.000647943
933.378,0.000630755
931.449,0.000579352
929.521,0.000522849
927.593,0.000489132
925.664,0.000464073
923.736,0.000430697
921.807,0.000390355
919.879,0.000348954
917.95,0.000321908
916.022,0.000310328
914.093,0.000297946
912.165,0.000282741
910.236,0.000269893
908.308,0.000259455
906.379,0.000250415
904.451,0.000235782
902.522,0.000213664
900.594,0.000200973
898.666,0.000212679
896.737,0.000235859
894.809,0.000235859
892.88,0.000196493
890.952,0.000148119
889.023,0.00013121
887.095,0.000139833
885.166,0.000138253
883.238,0.000133463
881.309,0.000149103
879.381,0.000151796
877.452,0.000124063
875.524,0.000110107
873.595,0.000116218
871.667,0.000113473
869.739,9.53E-05
867.81,5.86E-05
865.882,2.18E-05
863.953,1.74E-05
862.025,3.24E-05
860.096,3.35E-05
858.168,3.60E-06
856.239,-4.44E-05
854.311,-5.64E-05
852.382,-1.65E-05
850.454,1.82E-05
848.525,1.87E-05
846.597,1.36E-05
844.668,2.01E-05
842.74,1.53E-05
840.812,-3.62E-06
838.883,-1.19E-06
836.955,2.61E-05
835.026,7.07E-05
833.098,0.000129682
831.169,0.000164252
829.241,0.000166815
827.312,0.000162439
825.384,0.000133644
823.455,6.68E-05
821.527,1.18E-05
819.598,2.40E-05
817.67,7.20E-05
815.741,9.22E-05
813.813,9.70E-05
811.885,0.00011658
809.956,0.000138227
808.028,0.000176242
806.099,0.000240055
804.171,0.000264868
802.242,0.00024407
800.314,0.000248913
798.385,0.000266889
796.457,0.000267044
794.528,0.000276939
792.6,0.000267148
790.671,0.000216953
788.743,0.000190588
786.814,0.000169172
784.886,0.00011078
782.958,8.41E-05
781.029,0.000114897
779.101,0.000169327
777.172,0.000210996
775.244,0.000191909
773.315,0.000171969
771.387,0.000255026
769.458,0.000391365
767.53,0.000457387
765.601,0.000442876
763.673,0.000412067
761.744,0.000373877
759.816,0.00032569
757.887,0.000328099
755.959,0.000428339
754.031,0.000578756
752.102,0.000681413
750.174,0.000688828
748.245,0.000655954
746.317,0.000649758
744.388,0.000674361
742.46,0.000720616
740.531,0.000742941
738.603,0.000698836
736.674,0.000676046
734.746,0.000733425
732.817,0.000734955
730.889,0.000595915
728.96,0.000488873
727.032,0.000547082
725.104,0.000635473
723.175,0.000684991
721.247,0.00077201
719.318,0.000717141
717.39,0.000417534
715.461,0.00024293
713.533,0.000340327
711.604,0.000410435
709.676,0.000343902
707.747,0.000376856
705.819,0.000669902
703.89,0.000984731
701.962,0.001071057
700.033,0.001031408
698.105,0.001046172
696.177,0.001206355
694.248,0.001452377
692.32,0.001686402
690.391,0.002035413
688.463,0.00252247
686.534,0.00280579
684.606,0.002797244
682.677,0.002765903
680.749,0.002663013
678.82,0.002400453
676.892,0.00227951
674.963,0.002233532
673.035,0.002237877
671.106,0.003745444
669.178,0.007110735
667.25,0.008001669
665.321,0.004886128
663.393,0.002307537
661.464,0.001277667
659.536,0.001039088
657.607,0.001406927
655.679,0.001644929
653.75,0.00160902
651.822,0.001981477
649.893,0.002831428
647.965,0.003449169
646.036,0.002967718
644.108,0.001583922
642.179,0.000946931
640.251,0.001325233
638.323,0.000541976
636.394,-0.001043193
634.466,-0.000869157
632.537,8.88E-05
630.609,-0.000271045
628.68,-0.00071247
626.752,0.000361545
624.823,0.001993439
622.895,0.002943089
620.966,0.004010621
619.038,0.006118963
617.109,0.006760804
615.181,0.003730849
613.252,0.001667146
611.324,0.003993823
609.396,0.005479484
607.467,0.003342516
605.539,0.001996013
603.61,0.00265533
601.682,0.002895893
599.753,0.003189471
597.825,0.003713565
595.896,0.002492476
593.968,0.000664172
592.039,0.001734558
590.111,0.00502042
588.182,0.006944546
586.254,0.007465609
584.325,0.008211894
582.397,0.009144058
580.469,0.009647733
578.54,0.01012377
576.612,0.0132717
574.683,0.01753131
572.755,0.01679484
570.826,0.01214581
568.898,0.0104227
566.969,0.0119858
565.041,0.010748
563.112,0.007686246
561.184,0.01069348
559.255,0.01871751
557.327,0.02152149
555.398,0.01590415
553.47,0.00906753
551.542,0.006826539
549.613,0.009385731
547.685,0.01444781
545.756,0.0166327
543.828,0.01546725
541.899,0.0157978
539.971,0.01475396
538.042,0.008364793
536.114,0.004085688
534.185,0.007167865
532.257,0.01072807
530.328,0.01017279
528.4,0.008055673
526.471,0.005960396
524.543,0.006478413
522.615,0.01160392
520.686,0.01641283
518.758,0.01644571
516.829,0.01383898
514.901,0.01182795
512.972,0.01317488
511.044,0.01939931
509.115,0.02390845
507.187,0.02030789
505.258,0.01480902
503.33,0.01236031
501.401,0.009356979
499.473,0.004891704
497.544,0.001019264
495.616,-0.001520982
493.688,-0.002439566
491.759,-0.001442453
489.831,0.000610898
487.902,0.002221095
485.974,0.002093804
484.045,-0.000468594
482.117,-0.003183769
480.188,-0.002850918
478.26,0.000589694
476.331,0.003545225
474.403,0.002609155
472.474,0.000500612
470.546,0.001238544
468.617,0.003261005
466.689,0.006098171
464.76,0.01202894
462.832,0.01627273
460.904,0.01293869
458.975,0.00751449
457.047,0.006424816
455.118,0.008481925
453.19,0.01142758
451.261,0.01326887
449.333,0.01228258
447.404,0.009627724
445.476,0.00667234
443.547,0.003724113
441.619,0.001685336
439.69,0.001163734
437.762,0.002284325
435.833,0.003660594
433.905,0.003036557
431.977,0.000992566
430.048,-0.000690968
428.12,-0.001466292
426.191,-0.001174255
424.263,0.000527747
422.334,0.001939378
420.406,0.000561415
418.477,-0.000150682
416.549,0.003350603
414.62,0.00651407
412.692,0.006573014
410.763,0.006209782
408.835,0.00436671
406.906,0.00073135
404.978,0.000808861
403.05,0.005678892
401.121,0.01091215
399.193,0.01294344
